Wavelength (nm)	B03 ems
300.00	93090
300.50	87907
301.00	83423
301.50	78164
302.00	76661
302.50	74059
303.00	72199
303.50	70605
304.00	69528
304.50	68368
305.00	67320
305.50	65378
306.00	64717
306.50	63078
307.00	61335
307.50	60188
308.00	59247
308.50	57855
309.00	56750
309.50	55515
310.00	54171
310.50	54044
311.00	54148
311.50	54597
312.00	54474
312.50	54663
313.00	54962
313.50	55902
314.00	56579
314.50	59070
315.00	61264
315.50	66410
316.00	69014
316.50	74598
317.00	78225
317.50	84693
318.00	87900
318.50	93189
319.00	96253
319.50	1.0182e+05
320.00	1.0478e+05
320.50	1.1198e+05
321.00	1.1707e+05
321.50	1.2541e+05
322.00	1.2860e+05
322.50	1.3541e+05
323.00	1.4183e+05
323.50	1.5158e+05
324.00	1.5667e+05
324.50	1.6724e+05
325.00	1.7585e+05
325.50	1.9124e+05
326.00	1.9972e+05
326.50	2.1791e+05
327.00	2.3119e+05
327.50	2.5614e+05
328.00	2.7171e+05
328.50	3.0183e+05
329.00	3.2509e+05
329.50	3.6846e+05
330.00	3.9811e+05
330.50	4.5504e+05
331.00	4.9346e+05
331.50	5.6826e+05
332.00	6.1309e+05
332.50	6.9189e+05
333.00	7.4800e+05
333.50	8.6160e+05
334.00	9.2402e+05
334.50	1.0389e+06
335.00	1.1210e+06
335.50	1.2712e+06
336.00	1.3513e+06
336.50	1.4959e+06
337.00	1.5994e+06
337.50	1.7848e+06
338.00	1.8673e+06
338.50	2.0449e+06
339.00	2.1618e+06
339.50	2.3424e+06
340.00	2.4381e+06
340.50	2.5938e+06
341.00	2.7142e+06
341.50	2.8680e+06
342.00	2.9521e+06
342.50	3.0710e+06
343.00	3.1599e+06
343.50	3.2836e+06
344.00	3.3427e+06
344.50	3.4209e+06
345.00	3.4738e+06
345.50	3.5433e+06
346.00	3.5598e+06
346.50	3.5914e+06
347.00	3.5998e+06
347.50	3.6005e+06
348.00	3.6025e+06
348.50	3.5832e+06
349.00	3.5494e+06
349.50	3.5152e+06
350.00	3.4966e+06
350.50	3.4621e+06
351.00	3.4280e+06
351.50	3.3835e+06
352.00	3.3646e+06
352.50	3.3468e+06
353.00	3.3306e+06
353.50	3.3252e+06
354.00	3.3367e+06
354.50	3.3425e+06
355.00	3.3556e+06
355.50	3.3996e+06
356.00	3.4273e+06
356.50	3.4795e+06
357.00	3.5195e+06
357.50	3.5856e+06
358.00	3.6185e+06
358.50	3.6841e+06
359.00	3.7337e+06
359.50	3.8024e+06
360.00	3.8213e+06
360.50	3.8722e+06
361.00	3.9086e+06
361.50	3.9411e+06
362.00	3.9457e+06
362.50	3.9587e+06
363.00	3.9573e+06
363.50	3.9517e+06
364.00	3.9232e+06
364.50	3.8937e+06
365.00	3.8614e+06
365.50	3.8084e+06
366.00	3.7811e+06
366.50	3.7251e+06
367.00	3.6745e+06
367.50	3.5969e+06
368.00	3.5600e+06
368.50	3.4791e+06
369.00	3.4297e+06
369.50	3.3373e+06
370.00	3.2861e+06
370.50	3.2168e+06
371.00	3.1554e+06
371.50	3.0765e+06
372.00	3.0404e+06
372.50	2.9687e+06
373.00	2.9255e+06
373.50	2.8631e+06
374.00	2.8283e+06
374.50	2.7872e+06
375.00	2.7540e+06
375.50	2.7141e+06
376.00	2.6966e+06
376.50	2.6644e+06
377.00	2.6492e+06
377.50	2.6200e+06
378.00	2.6088e+06
378.50	2.5875e+06
379.00	2.5835e+06
379.50	2.5652e+06
380.00	2.5474e+06
380.50	2.5234e+06
381.00	2.5066e+06
381.50	2.4858e+06
382.00	2.4680e+06
382.50	2.4352e+06
383.00	2.4127e+06
383.50	2.3739e+06
384.00	2.3516e+06
384.50	2.3123e+06
385.00	2.2804e+06
385.50	2.2368e+06
386.00	2.2156e+06
386.50	2.1709e+06
387.00	2.1374e+06
387.50	2.0820e+06
388.00	2.0636e+06
388.50	2.0152e+06
389.00	1.9807e+06
389.50	1.9187e+06
390.00	1.8997e+06
390.50	1.8474e+06
391.00	1.8122e+06
391.50	1.7477e+06
392.00	1.7215e+06
392.50	1.6742e+06
393.00	1.6398e+06
393.50	1.5851e+06
394.00	1.5590e+06
394.50	1.5180e+06
395.00	1.4832e+06
395.50	1.4393e+06
396.00	1.4081e+06
396.50	1.3769e+06
397.00	1.3530e+06
397.50	1.3103e+06
398.00	1.2935e+06
398.50	1.2628e+06
399.00	1.2404e+06
399.50	1.2135e+06
400.00	1.1975e+06
400.50	1.1645e+06
401.00	1.1458e+06
401.50	1.1197e+06
402.00	1.1039e+06
402.50	1.0804e+06
403.00	1.0626e+06
403.50	1.0352e+06
404.00	1.0221e+06
404.50	1.0001e+06
405.00	9.8427e+05
405.50	9.5706e+05
406.00	9.4640e+05
406.50	9.2409e+05
407.00	9.0506e+05
407.50	8.8402e+05
408.00	8.7072e+05
408.50	8.4832e+05
409.00	8.3106e+05
409.50	8.0561e+05
410.00	7.9105e+05
410.50	7.6572e+05
411.00	7.5077e+05
411.50	7.2636e+05
412.00	7.1382e+05
412.50	6.9204e+05
413.00	6.7461e+05
413.50	6.5293e+05
414.00	6.4348e+05
414.50	6.2158e+05
415.00	6.0747e+05
415.50	5.8534e+05
416.00	5.7634e+05
416.50	5.5568e+05
417.00	5.4255e+05
417.50	5.2226e+05
418.00	5.1381e+05
418.50	4.9736e+05
419.00	4.8812e+05
419.50	4.7019e+05
420.00	4.6066e+05
420.50	4.4664e+05
421.00	4.3617e+05
421.50	4.2117e+05
422.00	4.1511e+05
422.50	4.0366e+05
423.00	3.9551e+05
423.50	3.8334e+05
424.00	3.7492e+05
424.50	3.6236e+05
425.00	3.5883e+05
425.50	3.4636e+05
426.00	3.4116e+05
426.50	3.3044e+05
427.00	3.2544e+05
427.50	3.1229e+05
428.00	3.0653e+05
428.50	2.9826e+05
429.00	2.9262e+05
429.50	2.8543e+05
430.00	2.7912e+05
430.50	2.6982e+05
431.00	2.6471e+05
431.50	2.5637e+05
432.00	2.5192e+05
432.50	2.4622e+05
433.00	2.4034e+05
433.50	2.3200e+05
434.00	2.2814e+05
434.50	2.2131e+05
435.00	2.1682e+05
435.50	2.0931e+05
436.00	2.0577e+05
436.50	1.9945e+05
437.00	1.9529e+05
437.50	1.8905e+05
438.00	1.8649e+05
438.50	1.8003e+05
439.00	1.7674e+05
439.50	1.7078e+05
440.00	1.6733e+05
440.50	1.6227e+05
441.00	1.5916e+05
441.50	1.5401e+05
442.00	1.5150e+05
442.50	1.4661e+05
443.00	1.4339e+05
443.50	1.3861e+05
444.00	1.3555e+05
444.50	1.3125e+05
445.00	1.2848e+05
445.50	1.2366e+05
446.00	1.2178e+05
446.50	1.1849e+05
447.00	1.1500e+05
447.50	1.1110e+05
448.00	1.0989e+05
448.50	1.0563e+05
449.00	1.0362e+05
449.50	99540
450.00	97223
450.50	94954
451.00	92540
451.50	89336
452.00	87689
452.50	84857
453.00	81651
453.50	79336
454.00	78400
454.50	75297
455.00	73823
455.50	70607
456.00	70430
456.50	67917
457.00	66519
457.50	64044
458.00	62619
458.50	60829
459.00	59599
459.50	58038
460.00	56915
460.50	55011
461.00	54626
461.50	52525
462.00	52042
462.50	50841
463.00	49645
463.50	47934
464.00	47322
464.50	46231
465.00	45440
465.50	44353
466.00	43401
466.50	42632
467.00	41500
467.50	39925
468.00	40017
468.50	38888
469.00	37869
469.50	36935
470.00	36210
470.50	35451
471.00	34741
471.50	33464
472.00	32830
472.50	32110
473.00	31574
473.50	30710
474.00	29806
474.50	29039
475.00	28800
475.50	27729
476.00	27297
476.50	26515
477.00	26116
477.50	25012
478.00	24925
478.50	23836
479.00	23202
479.50	22764
480.00	22416
480.50	21499
481.00	20639
481.50	20522
482.00	20688
482.50	19834
483.00	19351
483.50	18840
484.00	18544
484.50	18322
485.00	18003
485.50	17557
486.00	17027
486.50	16620
487.00	16259
487.50	15832
488.00	15750
488.50	15517
489.00	15140
489.50	15212
490.00	14800
490.50	14142
491.00	14330
491.50	13991
492.00	13625
492.50	13699
493.00	13302
493.50	13005
494.00	12869
494.50	12649
495.00	12395
495.50	12095
496.00	11970
496.50	11806
497.00	11754
497.50	11419
498.00	11011
498.50	11140
499.00	11108
499.50	10750
500.00	10542
