Wavelength (nm)	K04 abs e
200.00	46308
201.00	46633
202.00	46755
203.00	46238
204.00	46577
205.00	46671
206.00	47176
207.00	47988
208.00	49124
209.00	50220
210.00	51227
211.00	51948
212.00	52335
213.00	52318
214.00	51570
215.00	50006
216.00	47450
217.00	44371
218.00	41002
219.00	37760
220.00	34631
221.00	31841
222.00	29358
223.00	27128
224.00	25180
225.00	23517
226.00	22093
227.00	20907
228.00	19935
229.00	19207
230.00	18658
231.00	18341
232.00	18200
233.00	18195
234.00	18295
235.00	18542
236.00	18914
237.00	19429
238.00	20063
239.00	20686
240.00	21124
241.00	21229
242.00	21027
243.00	20652
244.00	20210
245.00	19776
246.00	19340
247.00	18808
248.00	18067
249.00	16972
250.00	15424
251.00	13494
252.00	11397
253.00	9356.7
254.00	7595.7
255.00	6231.2
256.00	5262.4
257.00	4645.5
258.00	4232.9
259.00	3957.5
260.00	3751.1
261.00	3566.5
262.00	3436.8
263.00	3385.0
264.00	3395.2
265.00	3508.1
266.00	3647.4
267.00	3832.0
268.00	4087.8
269.00	4361.5
270.00	4654.5
271.00	4964.3
272.00	5330.0
273.00	5730.2
274.00	6154.7
275.00	6618.5
276.00	7101.3
277.00	7590.6
278.00	8072.8
279.00	8514.1
280.00	8910.1
281.00	9222.9
282.00	9471.4
283.00	9688.4
284.00	9862.8
285.00	10016
286.00	10144
287.00	10235
288.00	10296
289.00	10306
290.00	10258
291.00	10213
292.00	10141
293.00	10079
294.00	10011
295.00	9968.6
296.00	9971.6
297.00	9990.0
298.00	9949.3
299.00	9860.8
300.00	9671.5
301.00	9358.2
302.00	8929.9
303.00	8411.0
304.00	7806.0
305.00	7192.7
306.00	6601.2
307.00	6021.1
308.00	5531.5
309.00	5122.0
310.00	4760.2
311.00	4461.8
312.00	4211.9
313.00	4019.5
314.00	3854.6
315.00	3707.1
316.00	3594.4
317.00	3490.3
318.00	3412.4
319.00	3357.4
320.00	3306.2
321.00	3247.4
322.00	3236.5
323.00	3230.4
324.00	3220.8
325.00	3209.9
326.00	3215.7
327.00	3216.4
328.00	3222.5
329.00	3215.1
330.00	3174.8
331.00	3164.1
332.00	3141.3
333.00	3123.7
334.00	3113.5
335.00	3102.8
336.00	3091.6
337.00	3111.6
338.00	3127.5
339.00	3145.5
340.00	3174.3
341.00	3182.3
342.00	3197.3
343.00	3206.0
344.00	3205.8
345.00	3182.1
346.00	3153.1
347.00	3112.9
348.00	3062.6
349.00	3010.8
350.00	2952.1
351.00	2884.9
352.00	2837.9
353.00	2743.9
354.00	2677.8
355.00	2616.8
356.00	2554.2
357.00	2471.9
358.00	2397.6
359.00	2333.8
360.00	2210.3
361.00	2105.7
362.00	2006.9
363.00	1911.5
364.00	1821.4
365.00	1750.2
366.00	1646.9
367.00	1585.3
368.00	1518.4
369.00	1448.1
370.00	1404.4
371.00	1343.1
372.00	1272.2
373.00	1215.4
374.00	1176.9
375.00	1120.8
376.00	1085.3
377.00	1039.8
378.00	951.30
379.00	891.97
380.00	833.64
381.00	747.61
382.00	657.20
383.00	604.63
384.00	526.63
385.00	450.00
386.00	399.13
387.00	367.66
388.00	323.01
389.00	283.25
390.00	240.89
391.00	224.61
392.00	208.94
393.00	201.31
394.00	174.79
395.00	179.89
396.00	168.24
397.00	134.95
398.00	117.26
399.00	123.81
400.00	143.06
401.00	129.74
402.00	140.13
403.00	125.87
404.00	123.81
405.00	120.95
406.00	71.097
407.00	105.97
408.00	110.35
409.00	115.92
410.00	129.27
411.00	114.48
412.00	108.80
413.00	117.26
414.00	120.01
415.00	109.63
416.00	104.31
417.00	129.06
418.00	112.31
419.00	84.158
420.00	109.16
421.00	110.61
422.00	103.30
423.00	133.61
424.00	108.54
425.00	92.190
426.00	112.09
427.00	131.08
428.00	113.90
429.00	117.41
430.00	134.77
431.00	144.83
432.00	149.32
433.00	133.33
434.00	161.36
435.00	141.54
436.00	135.28
437.00	141.43
438.00	179.63
439.00	176.13
440.00	181.66
441.00	169.43
442.00	196.13
443.00	193.31
444.00	188.68
445.00	185.82
446.00	202.64
447.00	221.24
448.00	203.30
449.00	224.46
450.00	235.02
451.00	235.93
452.00	256.01
453.00	270.05
454.00	284.16
455.00	288.06
456.00	272.72
457.00	294.39
458.00	325.76
459.00	321.85
460.00	334.23
461.00	353.40
462.00	392.11
463.00	367.37
464.00	401.67
465.00	414.51
466.00	429.05
467.00	452.43
468.00	497.11
469.00	523.23
470.00	520.88
471.00	551.01
472.00	618.81
473.00	608.36
474.00	651.12
475.00	667.26
476.00	693.27
477.00	737.05
478.00	799.13
479.00	826.12
480.00	877.82
481.00	892.72
482.00	930.79
483.00	1011.0
484.00	1062.8
485.00	1110.6
486.00	1151.7
487.00	1188.1
488.00	1320.9
489.00	1386.4
490.00	1455.7
491.00	1506.4
492.00	1591.8
493.00	1678.0
494.00	1802.2
495.00	1889.7
496.00	1988.4
497.00	2116.4
498.00	2242.3
499.00	2361.2
500.00	2528.6
501.00	2657.5
502.00	2756.7
503.00	2928.7
504.00	3075.9
505.00	3220.8
506.00	3382.8
507.00	3570.1
508.00	3720.2
509.00	3900.0
510.00	4110.5
511.00	4284.4
512.00	4500.4
513.00	4688.6
514.00	4937.1
515.00	5163.3
516.00	5376.6
517.00	5648.6
518.00	5895.2
519.00	6220.6
520.00	6461.9
521.00	6764.3
522.00	7127.4
523.00	7453.9
524.00	7873.2
525.00	8323.2
526.00	8680.9
527.00	9199.5
528.00	9682.6
529.00	10194
530.00	10820
531.00	11344
532.00	11980
533.00	12643
534.00	13275
535.00	13915
536.00	14588
537.00	15236
538.00	15937
539.00	16658
540.00	17351
541.00	17980
542.00	18727
543.00	19422
544.00	20185
545.00	20859
546.00	21543
547.00	22298
548.00	22920
549.00	23627
550.00	24321
551.00	25042
552.00	25759
553.00	26465
554.00	27092
555.00	27874
556.00	28585
557.00	29346
558.00	30051
559.00	30934
560.00	31718
561.00	32527
562.00	33484
563.00	34449
564.00	35569
565.00	36828
566.00	38130
567.00	39584
568.00	41198
569.00	42920
570.00	44677
571.00	46535
572.00	48297
573.00	50298
574.00	52309
575.00	54169
576.00	56119
577.00	58017
578.00	59704
579.00	61427
580.00	63101
581.00	64790
582.00	66183
583.00	67510
584.00	69033
585.00	70247
586.00	71451
587.00	72407
588.00	73297
589.00	73858
590.00	74440
591.00	74920
592.00	75000
593.00	74990
594.00	74824
595.00	74378
596.00	73782
597.00	72960
598.00	71872
599.00	70616
600.00	69303
601.00	67816
602.00	66168
603.00	64294
604.00	62479
605.00	60328
606.00	58174
607.00	55910
608.00	53687
609.00	51417
610.00	48882
611.00	46647
612.00	44252
613.00	41926
614.00	39637
615.00	37367
616.00	35242
617.00	33004
618.00	30971
619.00	28899
620.00	26923
621.00	25201
622.00	23212
623.00	21603
624.00	20035
625.00	18550
626.00	17119
627.00	15720
628.00	14548
629.00	13312
630.00	12266
631.00	11232
632.00	10249
633.00	9360.8
634.00	8570.3
635.00	7796.1
636.00	7107.4
637.00	6503.7
638.00	5928.0
639.00	5407.5
640.00	4934.4
641.00	4528.6
642.00	4155.6
643.00	3755.3
644.00	3426.4
645.00	3133.0
646.00	2781.1
647.00	2504.4
648.00	2285.2
649.00	2066.2
650.00	1916.0
651.00	1719.8
652.00	1542.8
653.00	1420.6
654.00	1307.8
655.00	1073.7
656.00	992.22
657.00	985.16
658.00	965.16
659.00	827.13
660.00	771.78
661.00	688.75
662.00	619.93
663.00	558.76
664.00	556.11
665.00	531.80
666.00	460.38
667.00	371.17
668.00	409.52
669.00	389.69
670.00	339.80
671.00	329.42
672.00	298.74
673.00	285.42
674.00	256.33
675.00	274.10
676.00	231.99
677.00	239.69
678.00	203.73
679.00	199.21
680.00	166.39
681.00	169.61
682.00	177.97
683.00	175.47
684.00	147.11
685.00	141.68
686.00	155.97
687.00	164.08
688.00	159.37
689.00	136.58
690.00	140.45
691.00	137.99
692.00	110.03
693.00	138.82
694.00	144.90
695.00	133.94
696.00	133.98
697.00	137.78
698.00	115.34
699.00	105.11
700.00	140.20
