Wavelength (nm)	213, PCPB 1993_58_116, 2b
400.00	
401.00	
402.00	
403.00	
404.00	
405.00	
406.00	
407.00	
408.00	
409.00	
410.00	
411.00	
412.00	
413.00	
414.00	
415.00	
416.00	
417.00	
418.00	
419.00	
420.00	
421.00	
422.00	
423.00	
424.00	
425.00	
426.00	
427.00	
428.00	
429.00	
430.00	
431.00	
432.00	
433.00	
434.00	
435.00	
436.00	
437.00	
438.00	
439.00	
440.00	
441.00	
442.00	
443.00	
444.00	
445.00	
446.00	
447.00	
448.00	
449.00	
450.00	
451.00	
452.00	
453.00	
454.00	
455.00	
456.00	
457.00	
458.00	
459.00	
460.00	
461.00	
462.00	
463.00	
464.00	
465.00	
466.00	
467.00	
468.00	
469.00	
470.00	
471.00	
472.00	
473.00	
474.00	
475.00	
476.00	
477.00	
478.00	
479.00	
480.00	
481.00	
482.00	
483.00	
484.00	
485.00	
486.00	
487.00	
488.00	
489.00	
490.00	
491.00	
492.00	
493.00	
494.00	
495.00	
496.00	
497.00	
498.00	
499.00	
500.00	
501.00	
502.00	
503.00	
504.00	
505.00	
506.00	
507.00	
508.00	
509.00	
510.00	
511.00	
512.00	
513.00	
514.00	
515.00	
516.00	
517.00	
518.00	
519.00	
520.00	
521.00	
522.00	
523.00	
524.00	
525.00	
526.00	
527.00	
528.00	
529.00	
530.00	0.0034618
531.00	0.0035831
532.00	0.0037043
533.00	0.0038256
534.00	0.0039469
535.00	0.0040682
536.00	0.0041894
537.00	0.0043107
538.00	0.0044320
539.00	0.0045532
540.00	0.0046723
541.00	0.0047914
542.00	0.0049105
543.00	0.0050297
544.00	0.0051488
545.00	0.0052679
546.00	0.0059777
547.00	0.0072548
548.00	0.0085320
549.00	0.0098091
550.00	0.011086
551.00	0.012363
552.00	0.014973
553.00	0.017610
554.00	0.020247
555.00	0.022883
556.00	0.025520
557.00	0.028157
558.00	0.031897
559.00	0.036046
560.00	0.040194
561.00	0.044343
562.00	0.048972
563.00	0.055652
564.00	0.062333
565.00	0.069013
566.00	0.075693
567.00	0.082662
568.00	0.092949
569.00	0.10324
570.00	0.11352
571.00	0.12381
572.00	0.13988
573.00	0.15618
574.00	0.17249
575.00	0.18880
576.00	0.20981
577.00	0.23087
578.00	0.25193
579.00	0.27564
580.00	0.29979
581.00	0.32393
582.00	0.35273
583.00	0.38316
584.00	0.41358
585.00	0.44401
586.00	0.47515
587.00	0.50637
588.00	0.53758
589.00	0.56839
590.00	0.59907
591.00	0.62976
592.00	0.66044
593.00	0.69054
594.00	0.71536
595.00	0.74019
596.00	0.76501
597.00	0.78983
598.00	0.81367
599.00	0.83653
600.00	0.85940
601.00	0.87993
602.00	0.89955
603.00	0.91995
604.00	0.94114
605.00	0.95796
606.00	0.97477
607.00	0.98345
608.00	0.98955
609.00	0.99543
610.00	0.99771
611.00	1.0000
612.00	0.99731
613.00	0.99462
614.00	0.98913
615.00	0.97888
616.00	0.96862
617.00	0.95577
618.00	0.94281
619.00	0.93277
620.00	0.92405
621.00	0.91533
622.00	0.90927
623.00	0.90323
624.00	0.89719
625.00	0.89641
626.00	0.89641
627.00	0.89641
628.00	0.89641
629.00	0.89787
630.00	0.90026
631.00	0.90266
632.00	0.90505
633.00	0.90745
634.00	0.90984
635.00	0.91203
636.00	0.91349
637.00	0.91496
638.00	0.91642
639.00	0.91505
640.00	0.91368
641.00	0.91231
642.00	0.91094
643.00	0.90735
644.00	0.90280
645.00	0.89825
646.00	0.89370
647.00	0.88823
648.00	0.88061
649.00	0.87298
650.00	0.86536
651.00	0.85533
652.00	0.84450
653.00	0.83366
654.00	0.82142
655.00	0.80770
656.00	0.79399
657.00	0.78027
658.00	0.76572
659.00	0.74974
660.00	0.73375
661.00	0.71777
662.00	0.70221
663.00	0.68701
664.00	0.67180
665.00	0.65660
666.00	0.64140
667.00	0.62725
668.00	0.61449
669.00	0.60174
670.00	0.58898
671.00	0.57623
672.00	0.56350
673.00	0.55095
674.00	0.53839
675.00	0.52583
676.00	0.51327
677.00	0.50071
678.00	0.48817
679.00	0.47565
680.00	0.46312
681.00	0.45059
682.00	0.43806
683.00	0.42554
684.00	0.41389
685.00	0.40487
686.00	0.39586
687.00	0.38685
688.00	0.37784
689.00	0.36883
690.00	0.35981
691.00	0.35132
692.00	0.34304
693.00	0.33475
694.00	0.32646
695.00	0.31818
696.00	0.31018
697.00	0.30348
698.00	0.29679
699.00	0.29009
700.00	0.28340
701.00	0.27671
702.00	0.27001
703.00	0.26332
704.00	0.25663
705.00	0.24993
706.00	0.24323
707.00	0.23653
708.00	0.22983
709.00	0.22313
710.00	0.21643
711.00	0.20973
712.00	0.20383
713.00	0.19824
714.00	0.19266
715.00	0.18708
716.00	0.18150
717.00	0.17591
718.00	0.17033
719.00	0.16475
720.00	0.15917
721.00	0.15359
722.00	0.14801
723.00	0.14243
724.00	0.13685
725.00	0.13127
726.00	0.12646
727.00	0.12298
728.00	0.11950
729.00	0.11602
730.00	0.11254
731.00	0.10905
732.00	0.10557
733.00	0.10212
734.00	0.098728
735.00	0.095340
736.00	0.091952
737.00	0.088564
738.00	0.085176
739.00	0.081789
740.00	0.078657
741.00	0.076068
742.00	0.073479
743.00	0.070890
744.00	0.068301
745.00	0.065712
746.00	0.063123
747.00	0.060732
748.00	0.058541
749.00	0.056349
750.00	0.054158
751.00	0.051966
752.00	0.049775
753.00	0.047583
754.00	0.045392
755.00	0.044213
756.00	0.043056
757.00	0.041898
758.00	0.040740
759.00	0.039583
760.00	0.038425
761.00	0.037354
762.00	0.036295
763.00	0.035236
764.00	0.034177
765.00	0.033118
766.00	0.032060
767.00	0.031102
768.00	0.030524
769.00	0.029946
770.00	0.029368
771.00	0.028790
772.00	0.028212
773.00	0.027638
774.00	0.027097
775.00	0.026556
776.00	0.026015
777.00	0.025474
778.00	0.024933
779.00	0.024393
780.00	0.023810
781.00	0.023195
782.00	0.022580
783.00	0.021966
784.00	0.021351
785.00	0.020737
786.00	0.020122
787.00	0.019507
788.00	0.019109
789.00	0.018732
790.00	0.018356
791.00	0.017979
792.00	0.017602
793.00	0.017225
794.00	0.016935
795.00	0.016689
796.00	0.016443
797.00	0.016197
798.00	0.015951
799.00	0.015705
800.00	0.015459
801.00	
802.00	
803.00	
804.00	
805.00	
806.00	
807.00	
808.00	
809.00	
810.00	
811.00	
812.00	
813.00	
814.00	
815.00	
816.00	
817.00	
818.00	
819.00	
820.00	
821.00	
822.00	
823.00	
824.00	
825.00	
826.00	
827.00	
828.00	
829.00	
830.00	
831.00	
832.00	
833.00	
834.00	
835.00	
836.00	
837.00	
838.00	
839.00	
840.00	
841.00	
842.00	
843.00	
844.00	
845.00	
846.00	
847.00	
848.00	
849.00	
850.00	
