Wavelength (nm)	G17 abs e
200.00	13006
201.00	13688
202.00	13493
203.00	13117
204.00	12612
205.00	12029
206.00	11495
207.00	10958
208.00	10511
209.00	10079
210.00	9684.2
211.00	9350.4
212.00	9054.4
213.00	8804.6
214.00	8596.9
215.00	8431.2
216.00	8316.5
217.00	8227.8
218.00	8169.1
219.00	8122.7
220.00	8074.9
221.00	8013.0
222.00	7938.5
223.00	7857.5
224.00	7772.3
225.00	7707.8
226.00	7667.1
227.00	7671.2
228.00	7708.3
229.00	7730.9
230.00	7723.6
231.00	7697.7
232.00	7724.1
233.00	7867.1
234.00	8154.6
235.00	8595.2
236.00	9162.5
237.00	9843.1
238.00	10586
239.00	11365
240.00	12216
241.00	13116
242.00	14069
243.00	15109
244.00	16124
245.00	17070
246.00	17918
247.00	18588
248.00	19024
249.00	19200
250.00	19200
251.00	19170
252.00	19121
253.00	18946
254.00	18311
255.00	17083
256.00	15262
257.00	13089
258.00	10851
259.00	8853.3
260.00	7205.4
261.00	5916.6
262.00	4952.0
263.00	4218.5
264.00	3659.2
265.00	3239.5
266.00	2906.3
267.00	2649.4
268.00	2441.4
269.00	2267.0
270.00	2124.9
271.00	2005.0
272.00	1890.9
273.00	1786.2
274.00	1693.3
275.00	1602.6
276.00	1520.0
277.00	1441.5
278.00	1371.6
279.00	1312.6
280.00	1255.1
281.00	1202.5
282.00	1158.2
283.00	1118.7
284.00	1082.1
285.00	1048.4
286.00	1018.1
287.00	989.13
288.00	964.00
289.00	944.21
290.00	927.33
291.00	908.60
292.00	893.73
293.00	877.54
294.00	864.51
295.00	856.38
296.00	846.17
297.00	843.28
298.00	840.85
299.00	843.36
300.00	847.07
301.00	858.60
302.00	873.64
303.00	889.17
304.00	908.88
305.00	936.31
306.00	959.15
307.00	988.28
308.00	1023.7
309.00	1053.3
310.00	1088.1
311.00	1128.2
312.00	1162.6
313.00	1203.8
314.00	1243.5
315.00	1286.3
316.00	1330.8
317.00	1369.7
318.00	1416.4
319.00	1456.8
320.00	1499.8
321.00	1542.4
322.00	1586.4
323.00	1625.6
324.00	1665.9
325.00	1701.0
326.00	1742.7
327.00	1777.8
328.00	1811.4
329.00	1845.0
330.00	1876.0
331.00	1900.4
332.00	1926.4
333.00	1945.8
334.00	1962.1
335.00	1976.5
336.00	1988.7
337.00	1999.6
338.00	2004.4
339.00	2008.0
340.00	2005.1
341.00	2002.7
342.00	1996.3
343.00	1990.2
344.00	1976.3
345.00	1963.4
346.00	1952.2
347.00	1933.3
348.00	1911.4
349.00	1890.2
350.00	1866.3
351.00	1842.5
352.00	1816.8
353.00	1791.3
354.00	1764.7
355.00	1741.7
356.00	1716.3
357.00	1689.6
358.00	1668.2
359.00	1646.3
360.00	1625.2
361.00	1605.4
362.00	1584.7
363.00	1569.6
364.00	1552.4
365.00	1542.5
366.00	1537.1
367.00	1527.1
368.00	1517.1
369.00	1512.3
370.00	1512.1
371.00	1512.2
372.00	1517.0
373.00	1525.6
374.00	1529.5
375.00	1540.9
376.00	1547.8
377.00	1565.1
378.00	1575.6
379.00	1589.7
380.00	1603.5
381.00	1619.6
382.00	1639.8
383.00	1648.9
384.00	1661.9
385.00	1670.0
386.00	1685.6
387.00	1705.7
388.00	1714.9
389.00	1725.6
390.00	1740.4
391.00	1753.3
392.00	1759.1
393.00	1767.1
394.00	1776.5
395.00	1786.7
396.00	1788.8
397.00	1792.1
398.00	1791.9
399.00	1794.6
400.00	1788.4
401.00	1785.5
402.00	1786.3
403.00	1790.9
404.00	1777.2
405.00	1772.3
406.00	1768.2
407.00	1754.7
408.00	1744.3
409.00	1723.1
410.00	1707.1
411.00	1693.5
412.00	1679.2
413.00	1658.0
414.00	1637.2
415.00	1620.2
416.00	1598.4
417.00	1575.7
418.00	1551.6
419.00	1527.2
420.00	1499.6
421.00	1466.6
422.00	1437.2
423.00	1416.7
424.00	1387.8
425.00	1358.9
426.00	1327.5
427.00	1287.1
428.00	1259.7
429.00	1228.5
430.00	1195.0
431.00	1163.5
432.00	1138.6
433.00	1101.2
434.00	1069.0
435.00	1038.8
436.00	1004.4
437.00	978.62
438.00	941.08
439.00	913.12
440.00	876.81
441.00	843.07
442.00	813.19
443.00	785.06
444.00	755.91
445.00	733.22
446.00	702.01
447.00	674.72
448.00	647.45
449.00	620.50
450.00	594.86
451.00	569.28
452.00	545.37
453.00	519.67
454.00	497.75
455.00	478.85
456.00	457.21
457.00	431.52
458.00	415.85
459.00	394.30
460.00	391.99
461.00	367.60
462.00	356.49
463.00	337.60
464.00	318.41
465.00	310.89
466.00	298.21
467.00	284.71
468.00	273.48
469.00	271.13
470.00	263.06
471.00	246.01
472.00	247.43
473.00	234.96
474.00	233.08
475.00	221.20
476.00	222.83
477.00	214.75
478.00	208.89
479.00	200.18
480.00	198.59
481.00	194.77
482.00	189.39
483.00	185.14
484.00	187.91
485.00	178.37
486.00	177.76
487.00	187.18
488.00	178.08
489.00	165.51
490.00	170.79
491.00	170.05
492.00	168.35
493.00	163.02
494.00	165.13
495.00	160.63
496.00	160.80
497.00	161.56
498.00	162.95
499.00	159.29
500.00	147.14
501.00	139.82
502.00	145.15
503.00	145.06
504.00	135.98
505.00	145.25
506.00	142.77
507.00	148.48
508.00	153.41
509.00	149.24
510.00	138.69
511.00	136.27
512.00	138.48
513.00	134.40
514.00	137.84
515.00	139.55
516.00	138.67
517.00	137.99
518.00	135.84
519.00	130.46
520.00	134.48
521.00	124.67
522.00	122.94
523.00	115.68
524.00	116.88
525.00	109.79
526.00	109.75
527.00	105.38
528.00	102.67
529.00	111.39
530.00	106.70
531.00	106.08
532.00	108.40
533.00	96.287
534.00	99.488
535.00	100.99
536.00	95.850
537.00	91.993
538.00	94.926
539.00	89.513
540.00	89.513
541.00	89.788
542.00	92.941
543.00	83.727
544.00	84.181
545.00	81.540
546.00	78.298
547.00	75.924
548.00	76.524
549.00	66.768
550.00	66.111
551.00	70.325
552.00	68.542
553.00	66.014
554.00	68.915
555.00	65.641
556.00	68.324
557.00	64.604
558.00	59.491
559.00	64.653
560.00	64.831
561.00	60.480
562.00	59.491
563.00	60.982
564.00	54.881
565.00	56.274
566.00	54.257
567.00	53.779
568.00	51.915
569.00	48.495
570.00	50.092
571.00	49.541
572.00	46.770
573.00	43.123
574.00	43.374
575.00	45.149
576.00	47.507
577.00	42.532
578.00	43.220
579.00	45.287
580.00	41.422
581.00	40.149
582.00	38.034
583.00	40.611
584.00	36.560
585.00	37.613
586.00	39.023
587.00	33.140
588.00	33.545
589.00	35.531
590.00	33.383
591.00	37.095
592.00	33.132
593.00	30.588
594.00	35.458
595.00	33.270
596.00	31.439
597.00	30.879
598.00	29.389
599.00	29.624
600.00	28.781
