Wavelength (nm)	R02 abs e
300.00	12097
301.00	12096
302.00	12053
303.00	11992
304.00	11933
305.00	11833
306.00	11709
307.00	11568
308.00	11389
309.00	11230
310.00	11068
311.00	10905
312.00	10740
313.00	10576
314.00	10443
315.00	10313
316.00	10181
317.00	10084
318.00	9997.3
319.00	9922.2
320.00	9848.4
321.00	9783.4
322.00	9723.4
323.00	9677.8
324.00	9631.8
325.00	9616.0
326.00	9593.4
327.00	9578.3
328.00	9561.8
329.00	9561.4
330.00	9577.1
331.00	9566.9
332.00	9570.3
333.00	9558.2
334.00	9535.5
335.00	9537.0
336.00	9528.8
337.00	9504.9
338.00	9497.7
339.00	9485.7
340.00	9460.5
341.00	9451.3
342.00	9445.2
343.00	9432.1
344.00	9419.2
345.00	9453.6
346.00	9479.5
347.00	9533.7
348.00	9579.4
349.00	9628.6
350.00	9659.1
351.00	9715.4
352.00	9803.0
353.00	9836.2
354.00	9861.3
355.00	9910.7
356.00	9955.0
357.00	10028
358.00	10097
359.00	10042
360.00	10084
361.00	10235
362.00	10409
363.00	10563
364.00	10771
365.00	10830
366.00	10974
367.00	11602
368.00	12559
369.00	13655
370.00	14475
371.00	15123
372.00	15856
373.00	16762
374.00	17880
375.00	19094
376.00	20371
377.00	21830
378.00	23211
379.00	24670
380.00	26063
381.00	27620
382.00	29157
383.00	30761
384.00	32378
385.00	34061
386.00	35697
387.00	37512
388.00	39452
389.00	41450
390.00	43690
391.00	46264
392.00	49162
393.00	52193
394.00	55643
395.00	59667
396.00	64144
397.00	69093
398.00	74559
399.00	79625
400.00	85027
401.00	90776
402.00	96339
403.00	1.0143e+05
404.00	1.0620e+05
405.00	1.0992e+05
406.00	1.1232e+05
407.00	1.1352e+05
408.00	1.1400e+05
409.00	1.1357e+05
410.00	1.1221e+05
411.00	1.1065e+05
412.00	1.0870e+05
413.00	1.0671e+05
414.00	1.0491e+05
415.00	1.0343e+05
416.00	1.0201e+05
417.00	1.0083e+05
418.00	99988
419.00	99118
420.00	97929
421.00	96246
422.00	94116
423.00	91291
424.00	87511
425.00	83072
426.00	78229
427.00	72522
428.00	66700
429.00	60427
430.00	54277
431.00	48838
432.00	43423
433.00	37505
434.00	32263
435.00	27855
436.00	23593
437.00	19900
438.00	16674
439.00	13837
440.00	11458
441.00	9286.9
442.00	7635.1
443.00	6328.1
444.00	5135.5
445.00	4204.5
446.00	3415.3
447.00	2828.3
448.00	2341.4
449.00	1909.9
450.00	1637.8
451.00	1400.7
452.00	1239.8
453.00	1104.4
454.00	1018.1
455.00	903.17
456.00	855.82
457.00	848.21
458.00	811.42
459.00	836.40
460.00	854.68
461.00	826.29
462.00	867.63
463.00	880.46
464.00	821.52
465.00	863.99
466.00	888.52
467.00	1037.2
468.00	1025.5
469.00	1023.0
470.00	1055.8
471.00	1080.0
472.00	1134.2
473.00	1202.2
474.00	1279.9
475.00	1338.3
476.00	1416.7
477.00	1562.4
478.00	1634.6
479.00	1725.9
480.00	1793.3
481.00	1909.0
482.00	1995.1
483.00	2117.9
484.00	2162.0
485.00	2264.3
486.00	2504.5
487.00	2835.2
488.00	2886.2
489.00	2697.0
490.00	2629.1
491.00	2663.8
492.00	2707.0
493.00	2745.8
494.00	2859.8
495.00	2882.2
496.00	2907.4
497.00	2980.2
498.00	3091.9
499.00	3113.5
500.00	3176.0
501.00	3264.1
502.00	3337.2
503.00	3493.8
504.00	3624.8
505.00	3748.1
506.00	3888.2
507.00	3996.9
508.00	4165.4
509.00	4306.9
510.00	4477.8
511.00	4599.2
512.00	4713.4
513.00	4874.5
514.00	5019.4
515.00	5128.6
516.00	5237.3
517.00	5346.7
518.00	5482.9
519.00	5573.3
520.00	5707.1
521.00	5813.3
522.00	5894.6
523.00	6007.3
524.00	6145.5
525.00	6250.3
526.00	6306.0
527.00	6382.3
528.00	6523.2
529.00	6612.9
530.00	6712.7
531.00	6827.7
532.00	6889.1
533.00	7049.8
534.00	7230.1
535.00	7438.6
536.00	7636.9
537.00	7877.2
538.00	8183.9
539.00	8544.7
540.00	8981.6
541.00	9439.1
542.00	9972.0
543.00	10569
544.00	11140
545.00	11777
546.00	12450
547.00	13063
548.00	13650
549.00	14311
550.00	14851
551.00	15321
552.00	15798
553.00	16198
554.00	16579
555.00	16930
556.00	17165
557.00	17472
558.00	17668
559.00	17923
560.00	17995
561.00	18115
562.00	18168
563.00	18156
564.00	18055
565.00	17892
566.00	17621
567.00	17287
568.00	16909
569.00	16475
570.00	15982
571.00	15475
572.00	14866
573.00	14310
574.00	13549
575.00	12964
576.00	12351
577.00	11653
578.00	10889
579.00	10504
580.00	9767.1
581.00	9203.0
582.00	8558.4
583.00	8428.9
584.00	7854.9
585.00	7238.5
586.00	7063.5
587.00	6787.3
588.00	6472.3
589.00	6371.4
590.00	6170.4
591.00	6133.1
592.00	6142.1
593.00	6208.1
594.00	6474.8
595.00	6812.8
596.00	7060.3
597.00	7483.4
598.00	7936.0
599.00	8311.6
600.00	8792.4
601.00	9153.6
602.00	9431.8
603.00	9597.2
604.00	9627.7
605.00	9659.6
606.00	9479.1
607.00	9241.5
608.00	8904.7
609.00	8499.0
610.00	8005.2
611.00	7553.2
612.00	7011.3
613.00	6523.5
614.00	6012.7
615.00	5513.5
616.00	5044.1
617.00	4589.6
618.00	4163.1
619.00	3819.6
620.00	3481.8
621.00	3265.9
622.00	3088.3
623.00	2909.8
624.00	2789.8
625.00	2694.7
626.00	2539.9
627.00	2405.8
628.00	2267.7
629.00	2204.2
630.00	2190.8
631.00	2197.4
632.00	2162.2
633.00	2093.6
634.00	2028.7
635.00	1908.4
636.00	1814.4
637.00	1642.9
638.00	1479.8
639.00	1339.9
640.00	1271.8
641.00	1167.8
642.00	1075.6
643.00	978.69
644.00	920.43
645.00	854.23
646.00	787.23
647.00	660.49
648.00	613.71
649.00	558.97
650.00	502.19
651.00	447.79
652.00	435.41
653.00	376.25
654.00	265.66
655.00	260.21
656.00	253.10
657.00	248.38
658.00	243.62
659.00	232.35
660.00	227.03
661.00	214.65
662.00	205.68
663.00	181.61
664.00	147.31
665.00	133.34
666.00	156.28
667.00	112.56
668.00	124.48
669.00	114.49
670.00	125.96
671.00	131.41
672.00	141.97
673.00	110.63
674.00	115.40
675.00	107.68
676.00	101.09
677.00	96.207
678.00	133.46
679.00	96.548
680.00	112.67
681.00	94.504
682.00	71.905
683.00	80.081
684.00	111.31
685.00	120.74
686.00	100.07
687.00	88.144
688.00	96.889
689.00	93.709
690.00	99.728
691.00	107.56
692.00	97.229
693.00	102.57
694.00	105.06
695.00	125.85
696.00	118.58
697.00	156.28
698.00	155.83
699.00	126.41
700.00	131.75
701.00	130.62
702.00	141.63
703.00	140.50
704.00	137.88
705.00	133.23
706.00	131.87
707.00	164.68
708.00	132.89
709.00	111.54
710.00	112.56
711.00	118.12
712.00	101.66
713.00	117.90
714.00	111.42
715.00	106.20
716.00	79.968
717.00	75.880
718.00	112.45
719.00	101.54
720.00	81.104
721.00	64.296
722.00	75.653
723.00	87.009
724.00	98.365
725.00	98.138
726.00	113.35
727.00	88.144
728.00	117.10
729.00	146.06
730.00	138.79
731.00	160.94
732.00	133.00
733.00	136.52
734.00	188.99
735.00	171.73
736.00	160.82
737.00	178.54
738.00	142.65
739.00	174.34
740.00	191.26
741.00	132.32
742.00	161.05
743.00	184.10
744.00	142.88
745.00	170.93
746.00	162.41
747.00	175.36
748.00	178.31
749.00	168.55
750.00	217.94
751.00	180.13
752.00	160.82
753.00	182.17
754.00	185.01
755.00	145.38
756.00	210.68
757.00	235.43
758.00	226.58
759.00	138.57
760.00	221.69
761.00	225.78
762.00	113.13
763.00	181.38
764.00	239.52
765.00	265.53
766.00	160.71
767.00	116.19
768.00	229.64
769.00	295.51
770.00	204.66
771.00	261.78
772.00	217.60
773.00	213.63
774.00	247.58
775.00	223.17
776.00	234.18
777.00	245.54
778.00	255.99
779.00	303.91
780.00	246.68
781.00	248.27
782.00	294.26
783.00	226.92
784.00	237.48
785.00	223.74
786.00	256.21
787.00	248.61
788.00	283.47
789.00	241.57
790.00	215.90
791.00	224.53
792.00	242.47
793.00	225.89
794.00	243.22
795.00	229.30
796.00	182.51
797.00	195.23
798.00	217.03
799.00	237.82
800.00	223.51
