Wavelength (nm)	"66, Inorg Chem 2001_5585, F1C"
200.00	
201.00	
202.00	
203.00	
204.00	
205.00	
206.00	
207.00	
208.00	
209.00	
210.00	
211.00	
212.00	
213.00	
214.00	
215.00	
216.00	
217.00	
218.00	
219.00	
220.00	
221.00	
222.00	
223.00	
224.00	
225.00	
226.00	
227.00	
228.00	
229.00	
230.00	
231.00	
232.00	
233.00	
234.00	
235.00	
236.00	
237.00	
238.00	
239.00	
240.00	
241.00	
242.00	
243.00	
244.00	
245.00	
246.00	
247.00	
248.00	
249.00	
250.00	
251.00	
252.00	
253.00	
254.00	
255.00	
256.00	
257.00	
258.00	
259.00	
260.00	
261.00	
262.00	
263.00	
264.00	
265.00	
266.00	
267.00	
268.00	
269.00	
270.00	
271.00	
272.00	
273.00	
274.00	
275.00	
276.00	
277.00	
278.00	
279.00	
280.00	
281.00	
282.00	
283.00	
284.00	
285.00	
286.00	
287.00	
288.00	
289.00	
290.00	
291.00	
292.00	
293.00	
294.00	
295.00	
296.00	
297.00	
298.00	
299.00	
300.00	0.81169
301.00	0.82147
302.00	0.83097
303.00	0.84034
304.00	0.84936
305.00	0.85800
306.00	0.86663
307.00	0.87375
308.00	0.87699
309.00	0.88022
310.00	0.88345
311.00	0.88360
312.00	0.88013
313.00	0.87665
314.00	0.87318
315.00	0.86627
316.00	0.85733
317.00	0.84840
318.00	0.83667
319.00	0.82405
320.00	0.81143
321.00	0.79881
322.00	0.78717
323.00	0.77613
324.00	0.76509
325.00	0.75405
326.00	0.74301
327.00	0.73197
328.00	0.72096
329.00	0.70994
330.00	0.69901
331.00	0.69585
332.00	0.69270
333.00	0.68954
334.00	0.68639
335.00	0.68323
336.00	0.67881
337.00	0.67352
338.00	0.66822
339.00	0.66054
340.00	0.65194
341.00	0.64334
342.00	0.63901
343.00	0.63544
344.00	0.63186
345.00	0.63141
346.00	0.63255
347.00	0.63370
348.00	0.63485
349.00	0.63582
350.00	0.63663
351.00	0.63744
352.00	0.63823
353.00	0.63636
354.00	0.63450
355.00	0.63264
356.00	0.63078
357.00	0.62891
358.00	0.62224
359.00	0.61510
360.00	0.60795
361.00	0.60166
362.00	0.59570
363.00	0.58974
364.00	0.58378
365.00	0.57782
366.00	0.57336
367.00	0.56899
368.00	0.56463
369.00	0.56027
370.00	0.55638
371.00	0.55515
372.00	0.55393
373.00	0.55270
374.00	0.55147
375.00	0.55025
376.00	0.55152
377.00	0.55372
378.00	0.55592
379.00	0.55811
380.00	0.56031
381.00	0.56251
382.00	0.56540
383.00	0.56863
384.00	0.57185
385.00	0.57507
386.00	0.58081
387.00	0.58699
388.00	0.59317
389.00	0.59935
390.00	0.60549
391.00	0.61161
392.00	0.61773
393.00	0.62386
394.00	0.62998
395.00	0.63610
396.00	0.64384
397.00	0.65244
398.00	0.66105
399.00	0.66965
400.00	0.67826
401.00	0.68686
402.00	0.69939
403.00	0.71231
404.00	0.72522
405.00	0.73814
406.00	0.75133
407.00	0.76640
408.00	0.78147
409.00	0.79655
410.00	0.81162
411.00	0.82669
412.00	0.84149
413.00	0.85618
414.00	0.87087
415.00	0.88557
416.00	0.90026
417.00	0.91376
418.00	0.92419
419.00	0.93462
420.00	0.94505
421.00	0.95548
422.00	0.96546
423.00	0.97343
424.00	0.98140
425.00	0.98937
426.00	0.99492
427.00	0.99619
428.00	0.99746
429.00	0.99873
430.00	1.0000
431.00	0.99815
432.00	0.99630
433.00	0.99445
434.00	0.99260
435.00	0.98771
436.00	0.97879
437.00	0.96987
438.00	0.96094
439.00	0.94841
440.00	0.93556
441.00	0.92271
442.00	0.90986
443.00	0.89701
444.00	0.88343
445.00	0.86970
446.00	0.85596
447.00	0.84223
448.00	0.82849
449.00	0.81476
450.00	0.80102
451.00	0.78687
452.00	0.77228
453.00	0.75769
454.00	0.74310
455.00	0.72851
456.00	0.71392
457.00	0.69966
458.00	0.68806
459.00	0.67646
460.00	0.66486
461.00	0.65327
462.00	0.64167
463.00	0.63024
464.00	0.62200
465.00	0.61376
466.00	0.60553
467.00	0.59729
468.00	0.58905
469.00	0.58314
470.00	0.57860
471.00	0.57406
472.00	0.56952
473.00	0.56498
474.00	0.56043
475.00	0.55589
476.00	0.55238
477.00	0.54893
478.00	0.54548
479.00	0.54203
480.00	0.53858
481.00	0.53513
482.00	0.53297
483.00	0.53099
484.00	0.52900
485.00	0.52702
486.00	0.52504
487.00	0.52305
488.00	0.52117
489.00	0.51976
490.00	0.51834
491.00	0.51693
492.00	0.51552
493.00	0.51411
494.00	0.51253
495.00	0.50987
496.00	0.50720
497.00	0.50454
498.00	0.50187
499.00	0.49921
500.00	0.49650
501.00	0.49327
502.00	0.49003
503.00	0.48680
504.00	0.48356
505.00	0.48033
506.00	0.47709
507.00	0.47386
508.00	0.47004
509.00	0.46602
510.00	0.46199
511.00	0.45796
512.00	0.45394
513.00	0.44991
514.00	0.44608
515.00	0.44261
516.00	0.43913
517.00	0.43566
518.00	0.43218
519.00	0.42870
520.00	0.42523
521.00	0.42175
522.00	0.41761
523.00	0.41320
524.00	0.40879
525.00	0.40437
526.00	0.39996
527.00	0.39555
528.00	0.39114
529.00	0.38672
530.00	0.38229
531.00	0.37763
532.00	0.37297
533.00	0.36831
534.00	0.36365
535.00	0.35899
536.00	0.35433
537.00	0.34968
538.00	0.34425
539.00	0.33859
540.00	0.33293
541.00	0.32726
542.00	0.32160
543.00	0.31594
544.00	0.31027
545.00	0.30461
546.00	0.29895
547.00	0.29323
548.00	0.28727
549.00	0.28132
550.00	0.27537
551.00	0.26941
552.00	0.26346
553.00	0.25751
554.00	0.25223
555.00	0.24764
556.00	0.24304
557.00	0.23845
558.00	0.23386
559.00	0.22926
560.00	0.22467
561.00	0.22007
562.00	0.21622
563.00	0.21250
564.00	0.20877
565.00	0.20505
566.00	0.20133
567.00	0.19761
568.00	0.19388
569.00	0.19016
570.00	0.18644
571.00	0.18349
572.00	0.18062
573.00	0.17774
574.00	0.17486
575.00	0.17198
576.00	0.16911
577.00	0.16623
578.00	0.16335
579.00	0.16047
580.00	0.15836
581.00	0.15661
582.00	0.15485
583.00	0.15310
584.00	0.15135
585.00	0.14960
586.00	0.14785
587.00	0.14609
588.00	0.14434
589.00	0.14259
590.00	0.14084
591.00	0.13970
592.00	0.13868
593.00	0.13765
594.00	0.13663
595.00	0.13561
596.00	0.13459
597.00	0.13357
598.00	0.13255
599.00	0.13152
600.00	0.13050
601.00	0.12948
602.00	0.12885
603.00	0.12840
604.00	0.12794
605.00	0.12749
606.00	0.12704
607.00	0.12659
608.00	0.12614
609.00	0.12569
610.00	0.12524
611.00	0.12478
612.00	0.12424
613.00	0.12322
614.00	0.12219
615.00	0.12117
616.00	0.12015
617.00	0.11912
618.00	0.11810
619.00	0.11708
620.00	0.11605
621.00	0.11503
622.00	0.11401
623.00	0.11259
624.00	0.11116
625.00	0.10973
626.00	0.10829
627.00	0.10686
628.00	0.10543
629.00	0.10399
630.00	0.10256
631.00	0.10144
632.00	0.10092
633.00	0.10041
634.00	0.099898
635.00	0.099385
636.00	0.098872
637.00	0.098359
638.00	0.097846
639.00	0.097333
640.00	0.096828
641.00	0.096400
642.00	0.095972
643.00	0.095544
644.00	0.095116
645.00	0.094688
646.00	0.094260
647.00	0.093832
648.00	0.093404
649.00	0.092976
650.00	0.092547
651.00	0.092119
652.00	0.091691
653.00	0.091263
654.00	0.091115
655.00	0.091082
656.00	0.091049
657.00	0.091015
658.00	0.090982
659.00	0.090949
660.00	0.090915
661.00	0.090882
662.00	0.090848
663.00	0.090815
664.00	0.090782
665.00	0.090748
666.00	0.090715
667.00	0.090681
668.00	0.090648
669.00	0.090615
670.00	0.090644
671.00	0.090750
672.00	0.090855
673.00	0.090961
674.00	0.091067
675.00	0.091172
676.00	0.091278
677.00	0.091384
678.00	0.091490
679.00	0.091595
680.00	0.091701
681.00	0.091807
682.00	0.091912
683.00	0.092018
684.00	0.092150
685.00	0.092523
686.00	0.092895
687.00	0.093268
688.00	0.093640
689.00	0.094013
690.00	0.094385
691.00	0.094757
692.00	0.095130
693.00	0.095502
694.00	0.095875
695.00	0.096247
696.00	0.096619
697.00	0.096992
698.00	0.097364
699.00	0.097737
700.00	0.098224
701.00	0.098742
702.00	0.099260
703.00	0.099778
704.00	0.10030
705.00	0.10081
706.00	0.10133
707.00	0.10185
708.00	0.10237
709.00	0.10289
710.00	0.10340
711.00	0.10392
712.00	0.10444
713.00	0.10496
714.00	0.10549
715.00	0.10608
716.00	0.10668
717.00	0.10727
718.00	0.10787
719.00	0.10846
720.00	0.10906
721.00	0.10966
722.00	0.11025
723.00	0.11085
724.00	0.11144
725.00	0.11204
726.00	0.11263
727.00	0.11323
728.00	0.11382
729.00	0.11463
730.00	0.11549
731.00	0.11635
732.00	0.11721
733.00	0.11808
734.00	0.11894
735.00	0.11980
736.00	0.12066
737.00	0.12153
738.00	0.12239
739.00	0.12325
740.00	0.12411
741.00	0.12552
742.00	0.12721
743.00	0.12891
744.00	0.13060
745.00	0.13229
746.00	0.13398
747.00	0.13567
748.00	0.13737
749.00	0.13906
750.00	0.14075
751.00	0.14244
752.00	0.14413
753.00	0.14576
754.00	0.14738
755.00	0.14899
756.00	0.15061
757.00	0.15223
758.00	0.15384
759.00	0.15546
760.00	0.15708
761.00	0.15869
762.00	0.16031
763.00	0.16193
764.00	0.16376
765.00	0.16567
766.00	0.16759
767.00	0.16950
768.00	0.17142
769.00	0.17333
770.00	0.17525
771.00	0.17716
772.00	0.17908
773.00	0.18052
774.00	0.18182
775.00	0.18312
776.00	0.18443
777.00	0.18573
778.00	0.18703
779.00	0.18834
780.00	0.18964
781.00	0.19094
782.00	0.19225
783.00	0.19362
784.00	0.19504
785.00	0.19645
786.00	0.19787
787.00	0.19929
788.00	0.20071
789.00	0.20213
790.00	0.20355
791.00	0.20497
792.00	0.20638
793.00	0.20780
794.00	0.20922
795.00	0.21064
796.00	0.21197
797.00	0.21289
798.00	0.21382
799.00	0.21475
800.00	0.21567
801.00	0.21660
802.00	0.21752
803.00	0.21845
804.00	0.21938
805.00	0.22030
806.00	0.22123
807.00	0.22216
808.00	0.22308
809.00	0.22401
810.00	0.22494
811.00	0.22637
812.00	0.22790
813.00	0.22943
814.00	0.23096
815.00	0.23249
816.00	0.23402
817.00	0.23554
818.00	0.23707
819.00	0.23860
820.00	0.24013
821.00	0.24166
822.00	0.24320
823.00	0.24504
824.00	0.24687
825.00	0.24870
826.00	0.25054
827.00	0.25237
828.00	0.25420
829.00	0.25604
830.00	0.25787
831.00	0.26040
832.00	0.26315
833.00	0.26591
834.00	0.26867
835.00	0.27143
836.00	0.27419
837.00	0.27694
838.00	0.27970
839.00	0.28236
840.00	0.28443
841.00	0.28650
842.00	0.28857
843.00	0.29064
844.00	0.29271
845.00	0.29478
846.00	0.29685
847.00	0.29892
848.00	0.30099
849.00	0.30306
850.00	0.30513
851.00	0.30685
852.00	0.30838
853.00	0.30992
854.00	0.31146
855.00	0.31299
856.00	0.31453
857.00	0.31607
858.00	0.31760
859.00	0.31914
860.00	0.32068
861.00	0.32146
862.00	0.32202
863.00	0.32258
864.00	0.32315
865.00	0.32371
866.00	0.32428
867.00	0.32484
868.00	0.32541
869.00	0.32509
870.00	0.32477
871.00	0.32445
872.00	0.32413
873.00	0.32381
874.00	0.32350
875.00	0.32318
876.00	0.32273
877.00	0.32163
878.00	0.32053
879.00	0.31942
880.00	0.31832
881.00	0.31722
882.00	0.31611
883.00	0.31501
884.00	0.31391
885.00	0.31205
886.00	0.30956
887.00	0.30708
888.00	0.30460
889.00	0.30211
890.00	0.29963
891.00	0.29715
892.00	0.29466
893.00	0.29201
894.00	0.28935
895.00	0.28668
896.00	0.28401
897.00	0.28134
898.00	0.27867
899.00	0.27600
900.00	0.27333
901.00	0.27066
902.00	0.26791
903.00	0.26512
904.00	0.26233
905.00	0.25953
906.00	0.25674
907.00	0.25395
908.00	0.25115
909.00	0.24836
910.00	0.24557
911.00	0.24277
912.00	0.23955
913.00	0.23580
914.00	0.23205
915.00	0.22830
916.00	0.22455
917.00	0.22080
918.00	0.21705
919.00	0.21330
920.00	0.20955
921.00	0.20580
922.00	0.20214
923.00	0.19855
924.00	0.19496
925.00	0.19138
926.00	0.18779
927.00	0.18420
928.00	0.18061
929.00	0.17702
930.00	0.17343
931.00	0.16985
932.00	0.16626
933.00	0.16311
934.00	0.16012
935.00	0.15714
936.00	0.15416
937.00	0.15118
938.00	0.14820
939.00	0.14522
940.00	0.14224
941.00	0.13926
942.00	0.13627
943.00	0.13329
944.00	0.13033
945.00	0.12744
946.00	0.12455
947.00	0.12166
948.00	0.11877
949.00	0.11587
950.00	0.11298
951.00	0.11009
952.00	0.10720
953.00	0.10431
954.00	0.10141
955.00	0.098745
956.00	0.096394
957.00	0.094043
958.00	0.091693
959.00	0.089342
960.00	0.086991
961.00	0.084640
962.00	0.082290
963.00	0.079939
964.00	0.077588
965.00	0.075238
966.00	0.072887
967.00	0.070695
968.00	0.068893
969.00	0.067090
970.00	0.065288
971.00	0.063485
972.00	0.061683
973.00	0.059881
974.00	0.058078
975.00	0.056276
976.00	0.054473
977.00	0.052671
978.00	0.050869
979.00	0.049133
980.00	0.047721
981.00	0.046309
982.00	0.044897
983.00	0.043486
984.00	0.042074
985.00	0.040662
986.00	0.039250
987.00	0.037839
988.00	0.036427
989.00	0.035015
990.00	0.033603
991.00	0.032226
992.00	0.031387
993.00	0.030549
994.00	0.029710
995.00	0.028871
996.00	0.028033
997.00	0.027194
998.00	0.026355
999.00	0.025517
1000.0	0.024678
1001.0	
1002.0	
1003.0	
1004.0	
1005.0	
1006.0	
1007.0	
1008.0	
1009.0	
1010.0	
1011.0	
1012.0	
1013.0	
1014.0	
1015.0	
1016.0	
1017.0	
1018.0	
1019.0	
1020.0	
1021.0	
1022.0	
1023.0	
1024.0	
1025.0	
1026.0	
1027.0	
1028.0	
1029.0	
1030.0	
1031.0	
1032.0	
1033.0	
1034.0	
1035.0	
1036.0	
1037.0	
1038.0	
1039.0	
1040.0	
1041.0	
1042.0	
1043.0	
1044.0	
1045.0	
1046.0	
1047.0	
1048.0	
1049.0	
1050.0	
1051.0	
1052.0	
1053.0	
1054.0	
1055.0	
1056.0	
1057.0	
1058.0	
1059.0	
1060.0	
1061.0	
1062.0	
1063.0	
1064.0	
1065.0	
1066.0	
1067.0	
1068.0	
1069.0	
1070.0	
1071.0	
1072.0	
1073.0	
1074.0	
1075.0	
1076.0	
1077.0	
1078.0	
1079.0	
1080.0	
1081.0	
1082.0	
1083.0	
1084.0	
1085.0	
1086.0	
1087.0	
1088.0	
1089.0	
1090.0	
1091.0	
1092.0	
1093.0	
1094.0	
1095.0	
1096.0	
1097.0	
1098.0	
1099.0	
1100.0	
1101.0	
1102.0	
1103.0	
1104.0	
1105.0	
1106.0	
1107.0	
1108.0	
1109.0	
1110.0	
1111.0	
1112.0	
1113.0	
1114.0	
1115.0	
1116.0	
1117.0	
1118.0	
1119.0	
1120.0	
1121.0	
1122.0	
1123.0	
1124.0	
1125.0	
1126.0	
1127.0	
1128.0	
1129.0	
1130.0	
1131.0	
1132.0	
1133.0	
1134.0	
1135.0	
1136.0	
1137.0	
1138.0	
1139.0	
1140.0	
1141.0	
1142.0	
1143.0	
1144.0	
1145.0	
1146.0	
1147.0	
1148.0	
1149.0	
1150.0	
1151.0	
1152.0	
1153.0	
1154.0	
1155.0	
1156.0	
1157.0	
1158.0	
1159.0	
1160.0	
1161.0	
1162.0	
1163.0	
1164.0	
1165.0	
1166.0	
1167.0	
1168.0	
1169.0	
1170.0	
1171.0	
1172.0	
1173.0	
1174.0	
1175.0	
1176.0	
1177.0	
1178.0	
1179.0	
1180.0	
1181.0	
1182.0	
1183.0	
1184.0	
1185.0	
1186.0	
1187.0	
1188.0	
1189.0	
1190.0	
1191.0	
1192.0	
1193.0	
1194.0	
1195.0	
1196.0	
1197.0	
1198.0	
1199.0	
1200.0	
