Wavelength (nm)	O06 abs e
220.00	22125
220.25	22215
220.50	22375
220.75	22376
221.00	22467
221.25	22619
221.50	22701
221.75	22651
222.00	22717
222.25	22840
222.50	22904
222.75	22881
223.00	22906
223.25	22949
223.50	22966
223.75	23046
224.00	23059
224.25	23026
224.50	22942
224.75	22951
225.00	22954
225.25	22943
225.50	22883
225.75	22830
226.00	22736
226.25	22729
226.50	22720
226.75	22640
227.00	22593
227.25	22393
227.50	22290
227.75	22229
228.00	22185
228.25	22032
228.50	21926
228.75	21750
229.00	21667
229.25	21591
229.50	21430
229.75	21202
230.00	21047
230.25	20906
230.50	20791
230.75	20614
231.00	20487
231.25	20254
231.50	20065
231.75	19958
232.00	19717
232.25	19536
232.50	19396
232.75	19251
233.00	19029
233.25	18792
233.50	18703
233.75	18489
234.00	18276
234.25	18066
234.50	17972
234.75	17732
235.00	17585
235.25	17332
235.50	17070
235.75	16866
236.00	16652
236.25	16496
236.50	16372
236.75	16149
237.00	16018
237.25	15928
237.50	15718
237.75	15578
238.00	15472
238.25	15344
238.50	15129
238.75	15044
239.00	14938
239.25	14799
239.50	14720
239.75	14565
240.00	14429
240.25	14350
240.50	14270
240.75	14147
241.00	14078
241.25	14026
241.50	13931
241.75	13850
242.00	13782
242.25	13684
242.50	13594
242.75	13547
243.00	13501
243.25	13449
243.50	13389
243.75	13312
244.00	13305
244.25	13294
244.50	13188
244.75	13188
245.00	13227
245.25	13184
245.50	13160
245.75	13118
246.00	13112
246.25	13146
246.50	13139
246.75	13110
247.00	13154
247.25	13166
247.50	13265
247.75	13248
248.00	13298
248.25	13342
248.50	13416
248.75	13434
249.00	13546
249.25	13597
249.50	13634
249.75	13698
250.00	13816
250.25	13915
250.50	13971
250.75	14094
251.00	14203
251.25	14260
251.50	14399
251.75	14546
252.00	14638
252.25	14711
252.50	14893
252.75	15001
253.00	15151
253.25	15263
253.50	15372
253.75	15548
254.00	15623
254.25	15807
254.50	15873
254.75	15960
255.00	16000
255.25	16133
255.50	16232
255.75	16354
256.00	16532
256.25	16599
256.50	16795
256.75	16880
257.00	16986
257.25	17090
257.50	17193
257.75	17315
258.00	17503
258.25	17503
258.50	17696
258.75	17796
259.00	17812
259.25	17938
259.50	17971
259.75	18034
260.00	18115
260.25	18131
260.50	18100
260.75	18191
261.00	18155
261.25	18146
261.50	18102
261.75	18048
262.00	18072
262.25	17947
262.50	17812
262.75	17725
263.00	17569
263.25	17420
263.50	17270
263.75	17117
264.00	17011
264.25	16749
264.50	16522
264.75	16332
265.00	16027
265.25	15801
265.50	15501
265.75	15215
266.00	14937
266.25	14649
266.50	14404
266.75	14109
267.00	13777
267.25	13483
267.50	13146
267.75	12854
268.00	12491
268.25	12272
268.50	11846
268.75	11626
269.00	11330
269.25	11040
269.50	10802
269.75	10504
270.00	10272
270.25	9983.7
270.50	9748.9
270.75	9478.7
271.00	9285.4
271.25	9019.8
271.50	8785.6
271.75	8628.4
272.00	8400.4
272.25	8227.2
272.50	8091.8
272.75	7851.1
273.00	7696.9
273.25	7545.9
273.50	7386.6
273.75	7241.3
274.00	7169.4
274.25	7072.4
274.50	6926.1
274.75	6875.4
275.00	6739.2
275.25	6591.1
275.50	6491.2
275.75	6427.1
276.00	6239.1
276.25	6209.4
276.50	6166.0
276.75	6135.9
277.00	6073.8
277.25	5998.9
277.50	5957.8
277.75	5931.0
278.00	5864.5
278.25	5829.0
278.50	5795.6
278.75	5754.1
279.00	5775.0
279.25	5726.9
279.50	5706.3
279.75	5708.6
280.00	5678.9
280.25	5632.6
280.50	5640.5
280.75	5597.3
281.00	5621.2
281.25	5591.5
281.50	5611.8
281.75	5617.4
282.00	5605.2
282.25	5659.4
282.50	5605.6
282.75	5637.4
283.00	5609.9
283.25	5625.7
283.50	5623.7
283.75	5638.2
284.00	5630.1
284.25	5656.5
284.50	5625.1
284.75	5654.2
285.00	5697.4
285.25	5739.9
285.50	5756.8
285.75	5729.8
286.00	5740.6
286.25	5808.0
286.50	5808.5
286.75	5818.0
287.00	5822.8
287.25	5879.5
287.50	5965.0
287.75	5978.3
288.00	6028.0
288.25	6055.2
288.50	6097.5
288.75	6084.4
289.00	6108.9
289.25	6119.9
289.50	6232.7
289.75	6217.1
290.00	6232.9
290.25	6339.4
290.50	6371.0
290.75	6410.0
291.00	6453.4
291.25	6522.0
291.50	6539.8
291.75	6598.6
292.00	6680.2
292.25	6724.2
292.50	6730.6
292.75	6804.0
293.00	6871.9
293.25	6956.8
293.50	6993.5
293.75	7057.7
294.00	7150.3
294.25	7195.6
294.50	7262.4
294.75	7267.8
295.00	7296.9
295.25	7384.5
295.50	7377.1
295.75	7470.3
296.00	7557.7
296.25	7637.9
296.50	7703.1
296.75	7787.2
297.00	7884.6
297.25	7952.5
297.50	8085.8
297.75	8158.5
298.00	8213.7
298.25	8260.8
298.50	8366.3
298.75	8510.0
299.00	8628.0
299.25	8693.8
299.50	8807.4
299.75	8879.0
300.00	9049.7
300.25	9154.0
300.50	9238.3
300.75	9304.3
301.00	9450.9
301.25	9607.7
301.50	9747.4
301.75	9882.6
302.00	9977.1
302.25	10124
302.50	10254
302.75	10336
303.00	10420
303.25	10600
303.50	10700
303.75	10878
304.00	10982
304.25	11145
304.50	11299
304.75	11428
305.00	11544
305.25	11641
305.50	11796
305.75	11916
306.00	12093
306.25	12221
306.50	12363
306.75	12471
307.00	12684
307.25	12830
307.50	13004
307.75	13131
308.00	13319
308.25	13453
308.50	13647
308.75	13751
309.00	13964
309.25	14117
309.50	14283
309.75	14387
310.00	13853
310.25	14275
310.50	14263
310.75	14515
311.00	14700
311.25	14772
311.50	14998
311.75	15405
312.00	15587
312.25	15504
312.50	15713
312.75	15655
313.00	16087
313.25	16221
313.50	16389
313.75	16539
314.00	16560
314.25	16922
314.50	17059
314.75	17152
315.00	17397
315.25	17642
315.50	17651
315.75	18088
316.00	18136
316.25	18298
316.50	18860
316.75	18698
317.00	18988
317.25	19023
317.50	19089
317.75	19612
318.00	19505
318.25	19913
318.50	19921
318.75	20033
319.00	20148
319.25	20304
319.50	20289
319.75	20565
320.00	20846
320.25	20604
320.50	21090
320.75	20989
321.00	21436
321.25	21530
321.50	21544
321.75	21754
322.00	21861
322.25	22021
322.50	21911
322.75	22182
323.00	22391
323.25	22492
323.50	22654
323.75	22511
324.00	23028
324.25	23007
324.50	23219
324.75	23164
325.00	23587
325.25	23419
325.50	23716
325.75	23758
326.00	23904
326.25	23996
326.50	24181
326.75	24249
327.00	24296
327.25	24257
327.50	24492
327.75	24708
328.00	24909
328.25	24876
328.50	24982
328.75	25138
329.00	25349
329.25	25039
329.50	25363
329.75	25550
330.00	25546
330.25	25634
330.50	25776
330.75	25514
331.00	25764
331.25	25860
331.50	25849
331.75	26025
332.00	25757
332.25	26135
332.50	26309
332.75	26362
333.00	26362
333.25	26681
333.50	26256
333.75	26437
334.00	26546
334.25	26838
334.50	26774
334.75	26859
335.00	26834
335.25	26966
335.50	26716
335.75	26846
336.00	26874
336.25	27109
336.50	27386
336.75	27054
337.00	27120
337.25	27097
337.50	27372
337.75	27320
338.00	27299
338.25	27467
338.50	27577
338.75	27445
339.00	27487
339.25	27651
339.50	27410
339.75	27569
340.00	27344
340.25	27638
340.50	27786
340.75	27519
341.00	27556
341.25	27764
341.50	27721
341.75	27622
342.00	27714
342.25	27664
342.50	27585
342.75	27797
343.00	27648
343.25	27695
343.50	27635
343.75	27759
344.00	27800
344.25	27780
344.50	27492
344.75	27664
345.00	27519
345.25	27548
345.50	27588
345.75	27523
346.00	27413
346.25	27410
346.50	27518
346.75	27559
347.00	27330
347.25	27378
347.50	27503
347.75	27459
348.00	27475
348.25	27104
348.50	27188
348.75	27170
349.00	27343
349.25	27212
349.50	27048
349.75	27219
350.00	26918
350.25	26855
350.50	26782
350.75	26783
351.00	26674
351.25	26477
351.50	26667
351.75	26514
352.00	26283
352.25	26311
352.50	26259
352.75	26203
353.00	26079
353.25	26189
353.50	25990
353.75	25879
354.00	25868
354.25	25853
354.50	25684
354.75	25661
355.00	25424
355.25	25391
355.50	25145
355.75	25083
356.00	24978
356.25	24860
356.50	24857
356.75	24626
357.00	24540
357.25	24401
357.50	24404
357.75	24193
358.00	24222
358.25	23939
358.50	23868
358.75	23801
359.00	23694
359.25	23581
359.50	23411
359.75	23313
360.00	23130
360.25	22980
360.50	22898
360.75	22765
361.00	22657
361.25	22576
361.50	22260
361.75	22148
362.00	22052
362.25	21926
362.50	21787
362.75	21565
363.00	21440
363.25	21438
363.50	21309
363.75	21053
364.00	20890
364.25	20706
364.50	20679
364.75	20466
365.00	20173
365.25	20074
365.50	19875
365.75	19815
366.00	19734
366.25	19480
366.50	19266
366.75	19206
367.00	19009
367.25	18821
367.50	18650
367.75	18471
368.00	18301
368.25	18085
368.50	17996
368.75	17735
369.00	17701
369.25	17442
369.50	17278
369.75	17117
370.00	16827
370.25	16566
370.50	16515
370.75	16244
371.00	16209
371.25	15941
371.50	15689
371.75	15574
372.00	15512
372.25	15194
372.50	15072
372.75	14857
373.00	14813
373.25	14630
373.50	14392
373.75	14186
374.00	14051
374.25	13844
374.50	13817
374.75	13796
375.00	13633
375.25	13475
375.50	13317
375.75	13053
376.00	12841
376.25	12589
376.50	12311
376.75	12151
377.00	11928
377.25	11817
377.50	11565
377.75	11347
378.00	11218
378.25	11010
378.50	10834
378.75	10704
379.00	10431
379.25	10268
379.50	10164
379.75	10019
380.00	9805.2
380.25	9591.7
380.50	9392.6
380.75	9321.5
381.00	9033.1
381.25	8954.6
381.50	8705.0
381.75	8527.5
382.00	8347.4
382.25	8153.5
382.50	8027.9
382.75	7891.8
383.00	7698.3
383.25	7506.9
383.50	7342.2
383.75	7229.4
384.00	7068.1
384.25	6902.4
384.50	6758.7
384.75	6601.3
385.00	6400.5
385.25	6308.5
385.50	6181.0
385.75	6008.8
386.00	5917.3
386.25	5777.1
386.50	5587.9
386.75	5445.1
387.00	5300.8
387.25	5189.2
387.50	5083.3
387.75	4969.1
388.00	4813.8
388.25	4644.6
388.50	4563.8
388.75	4465.8
389.00	4404.3
389.25	4204.1
389.50	4055.0
389.75	3968.5
390.00	3874.8
390.25	3734.8
390.50	3688.1
390.75	3584.9
391.00	3396.6
391.25	3354.0
391.50	3290.9
391.75	3158.0
392.00	3094.2
392.25	2954.5
392.50	2846.5
392.75	2802.9
393.00	2729.2
393.25	2602.3
393.50	2591.7
393.75	2483.1
394.00	2470.4
394.25	2341.9
394.50	2262.4
394.75	2225.8
395.00	2045.4
395.25	2045.4
395.50	1938.2
395.75	1883.4
396.00	1820.9
396.25	1782.3
396.50	1680.5
396.75	1624.3
397.00	1554.3
397.25	1525.8
397.50	1496.8
397.75	1428.7
398.00	1390.9
398.25	1356.2
398.50	1258.8
398.75	1282.0
399.00	1182.6
399.25	1196.3
399.50	1167.0
399.75	1106.8
400.00	1082.5
400.25	1065.1
400.50	953.75
400.75	982.61
401.00	964.13
401.25	916.37
401.50	877.75
401.75	811.51
402.00	818.57
402.25	773.09
402.50	757.93
402.75	705.81
403.00	744.44
403.25	696.88
403.50	618.18
403.75	648.71
404.00	586.00
404.25	644.55
404.50	513.11
404.75	564.40
405.00	470.13
405.25	491.31
405.50	543.22
405.75	511.86
406.00	470.75
406.25	438.98
406.50	419.87
406.75	340.34
407.00	364.64
407.25	349.69
407.50	338.27
407.75	317.92
408.00	328.71
408.25	359.65
408.50	339.93
408.75	303.59
409.00	285.31
409.25	266.42
409.50	293.62
409.75	230.70
410.00	195.19
410.25	217.41
410.50	205.16
410.75	267.25
411.00	171.31
411.25	218.04
411.50	199.97
411.75	239.84
412.00	201.01
412.25	164.25
412.50	130.20
412.75	224.47
413.00	129.16
413.25	182.73
413.50	173.39
413.75	167.99
414.00	158.85
414.25	163.84
414.50	102.58
414.75	104.24
415.00	159.27
415.25	155.53
415.50	98.427
415.75	117.95
416.00	146.19
416.25	88.668
416.50	110.47
416.75	63.334
417.00	102.17
417.25	70.394
417.50	120.65
417.75	116.29
418.00	135.39
418.25	69.148
418.50	47.968
418.75	100.30
419.00	74.755
419.25	109.64
419.50	77.662
419.75	69.356
420.00	107.56
420.25	92.198
420.50	79.116
420.75	94.067
421.00	86.591
421.25	73.717
421.50	68.110
421.75	-5.6066
422.00	95.520
422.25	79.531
422.50	77.039
422.75	45.684
423.00	45.061
423.25	40.492
423.50	61.881
423.75	52.329
424.00	97.597
424.25	23.672
424.50	65.826
424.75	43.192
425.00	70.394
425.25	69.148
425.50	70.394
425.75	68.110
426.00	34.886
426.25	43.607
426.50	11.421
426.75	36.132
427.00	39.662
427.25	41.946
427.50	35.301
427.75	111.92
428.00	48.175
428.25	26.164
428.50	63.542
428.75	30.317
429.00	25.957
429.25	25.749
429.50	-13.913
429.75	51.290
430.00	89.083
430.25	18.689
430.50	68.110
430.75	18.689
431.00	21.804
431.25	35.093
431.50	34.055
431.75	82.230
432.00	72.263
432.25	49.629
432.50	37.170
432.75	33.640
433.00	14.120
433.25	0.83061
433.50	13.705
433.75	19.519
434.00	43.607
434.25	25.957
434.50	56.689
434.75	28.448
435.00	53.367
435.25	27.203
435.50	23.880
435.75	53.782
436.00	41.323
436.25	27.618
436.50	73.301
436.75	51.290
437.00	19.519
437.25	17.235
437.50	32.809
437.75	66.034
438.00	89.498
438.25	40.492
438.50	54.820
438.75	10.798
439.00	56.897
439.25	11.836
439.50	63.126
439.75	65.203
440.00	67.072
440.25	24.503
440.50	71.848
440.75	46.722
441.00	1.8689
441.25	59.181
441.50	27.618
441.75	22.842
442.00	15.159
442.25	40.700
442.50	42.569
442.75	32.809
443.00	73.301
443.25	48.591
443.50	19.935
443.75	38.208
444.00	40.492
444.25	-1.6612
444.50	-4.9837
444.75	72.678
445.00	25.334
445.25	56.897
445.50	57.935
445.75	79.946
446.00	43.607
446.25	40.700
446.50	36.755
446.75	69.979
447.00	53.574
447.25	30.733
447.50	107.15
447.75	47.552
448.00	44.438
448.25	8.3061
448.50	35.093
448.75	45.268
449.00	94.067
449.25	36.547
449.50	-2.2842
449.75	72.886
450.00	43.399
450.25	34.055
450.50	21.388
450.75	28.656
451.00	25.749
451.25	68.941
451.50	26.787
451.75	98.220
452.00	45.684
452.25	53.782
452.50	70.394
452.75	36.547
453.00	4.7760
453.25	16.197
453.50	-5.1913
453.75	37.793
454.00	43.192
454.25	52.744
454.50	107.77
454.75	44.853
455.00	26.995
455.25	46.307
455.50	0.41531
455.75	50.875
456.00	6.8525
456.25	45.684
456.50	19.312
456.75	46.722
457.00	45.061
457.25	7.2678
457.50	35.924
457.75	17.858
458.00	58.350
458.25	53.574
458.50	93.444
458.75	38.416
459.00	63.334
459.25	96.143
459.50	54.197
459.75	58.350
460.00	14.536
460.25	30.940
460.50	6.6449
460.75	63.334
461.00	57.312
461.25	83.061
461.50	79.946
461.75	0.024727
462.00	40.077
462.25	76.001
462.50	38.623
462.75	60.427
463.00	50.460
463.25	41.738
463.50	14.120
463.75	26.787
464.00	40.700
464.25	16.405
464.50	66.241
464.75	6.8525
465.00	66.449
465.25	37.585
465.50	51.706
465.75	46.514
466.00	10.798
466.25	65.203
466.50	71.225
466.75	68.110
467.00	62.503
467.25	83.269
467.50	77.454
467.75	72.471
468.00	79.739
468.25	66.241
468.50	60.012
468.75	66.034
469.00	89.498
469.25	43.399
469.50	49.421
469.75	55.859
470.00	58.350
470.25	17.443
470.50	26.580
470.75	97.804
471.00	62.919
471.25	55.443
471.50	-7.2678
471.75	-11.421
472.00	63.334
472.25	2.2842
472.50	37.170
472.75	61.465
473.00	83.892
473.25	67.072
473.50	47.968
473.75	36.755
474.00	1.2459
474.25	77.454
474.50	-12.874
474.75	44.022
475.00	49.837
475.25	44.022
475.50	58.558
475.75	20.350
476.00	35.716
476.25	52.744
476.50	83.476
476.75	38.416
477.00	40.492
477.25	36.547
477.50	57.105
477.75	50.875
478.00	25.126
478.25	46.307
478.50	55.236
478.75	92.613
479.00	55.443
479.25	9.1367
479.50	64.580
479.75	27.203
480.00	44.853
480.25	19.727
480.50	30.525
480.75	58.350
481.00	99.881
481.25	17.650
481.50	27.203
481.75	72.471
482.00	66.449
482.25	51.706
482.50	38.623
482.75	47.552
483.00	70.602
483.25	78.700
483.50	51.706
483.75	57.105
484.00	18.689
484.25	89.706
484.50	24.503
484.75	79.531
485.00	60.842
485.25	75.793
485.50	62.711
485.75	53.367
486.00	-2.2842
486.25	42.154
486.50	62.919
486.75	11.836
487.00	65.618
487.25	46.930
487.50	63.542
487.75	27.618
488.00	41.115
488.25	48.175
488.50	68.733
488.75	48.591
489.00	19.312
489.25	40.908
489.50	57.727
489.75	25.749
490.00	82.646
490.25	78.285
490.50	14.743
490.75	70.810
491.00	47.968
491.25	75.378
491.50	50.667
491.75	58.143
492.00	23.465
492.25	11.836
492.50	-7.2678
492.75	29.487
493.00	49.006
493.25	12.044
493.50	59.181
493.75	31.148
494.00	64.580
494.25	30.733
494.50	-3.7378
494.75	11.006
495.00	-15.989
495.25	74.547
495.50	17.235
495.75	34.886
496.00	58.973
496.25	20.350
496.50	86.176
496.75	12.874
497.00	47.760
497.25	14.951
497.50	32.601
497.75	27.410
498.00	36.755
498.25	45.061
498.50	14.536
498.75	62.919
499.00	70.810
499.25	55.028
499.50	64.788
499.75	63.542
500.00	29.902
