Wavelength (nm)	S08 abs e
285.00	34499
286.00	34271
287.00	34085
288.00	33947
289.00	33898
290.00	33853
291.00	33822
292.00	33850
293.00	33946
294.00	33993
295.00	34130
296.00	34220
297.00	34355
298.00	34532
299.00	34670
300.00	34930
301.00	35251
302.00	35590
303.00	36011
304.00	36474
305.00	36970
306.00	37480
307.00	38030
308.00	38582
309.00	39075
310.00	39509
311.00	39892
312.00	40258
313.00	40570
314.00	40822
315.00	41031
316.00	41247
317.00	41482
318.00	41828
319.00	42172
320.00	42557
321.00	43008
322.00	43480
323.00	43991
324.00	44549
325.00	45003
326.00	45352
327.00	45645
328.00	45804
329.00	45874
330.00	45873
331.00	45695
332.00	45339
333.00	44972
334.00	44551
335.00	44009
336.00	43416
337.00	42861
338.00	42300
339.00	41719
340.00	41139
341.00	40598
342.00	40038
343.00	39571
344.00	39043
345.00	38654
346.00	38319
347.00	37982
348.00	37761
349.00	37628
350.00	37510
351.00	37454
352.00	37463
353.00	37470
354.00	37415
355.00	37242
356.00	36989
357.00	36564
358.00	35985
359.00	35340
360.00	34498
361.00	33612
362.00	32654
363.00	31588
364.00	30562
365.00	29380
366.00	28353
367.00	27252
368.00	26281
369.00	25282
370.00	24282
371.00	23278
372.00	22372
373.00	21510
374.00	20758
375.00	19993
376.00	19251
377.00	18710
378.00	18162
379.00	17665
380.00	17184
381.00	16793
382.00	16501
383.00	16153
384.00	15887
385.00	15728
386.00	15571
387.00	15396
388.00	15248
389.00	15185
390.00	15201
391.00	15178
392.00	15164
393.00	15166
394.00	15183
395.00	15208
396.00	15190
397.00	15359
398.00	15325
399.00	15373
400.00	15383
401.00	15400
402.00	15549
403.00	15569
404.00	15634
405.00	15671
406.00	15711
407.00	15746
408.00	15896
409.00	15942
410.00	16024
411.00	16084
412.00	16131
413.00	16227
414.00	16242
415.00	16222
416.00	16265
417.00	16242
418.00	16193
419.00	16114
420.00	15995
421.00	15878
422.00	15700
423.00	15564
424.00	15424
425.00	15275
426.00	15212
427.00	15105
428.00	15079
429.00	15013
430.00	15031
431.00	14991
432.00	15072
433.00	15180
434.00	15240
435.00	15335
436.00	15470
437.00	15574
438.00	15630
439.00	15840
440.00	15966
441.00	16067
442.00	16191
443.00	16261
444.00	16254
445.00	16263
446.00	16243
447.00	16206
448.00	16178
449.00	16163
450.00	16066
451.00	15974
452.00	15898
453.00	15840
454.00	15711
455.00	15713
456.00	15746
457.00	15691
458.00	15706
459.00	15708
460.00	15781
461.00	15766
462.00	15782
463.00	15901
464.00	15978
465.00	16056
466.00	16153
467.00	16278
468.00	16391
469.00	16439
470.00	16526
471.00	16695
472.00	16825
473.00	16854
474.00	16892
475.00	16907
476.00	16817
477.00	16693
478.00	16614
479.00	16419
480.00	16297
481.00	16067
482.00	15674
483.00	15439
484.00	15172
485.00	14631
486.00	14363
487.00	13996
488.00	13583
489.00	13140
490.00	12818
491.00	12410
492.00	12108
493.00	11753
494.00	11559
495.00	11254
496.00	11062
497.00	10832
498.00	10535
499.00	10455
500.00	10366
501.00	10181
502.00	10061
503.00	9873.3
504.00	9922.2
505.00	9846.3
506.00	9772.4
507.00	9684.4
508.00	9612.9
509.00	9534.8
510.00	9381.8
511.00	9397.4
512.00	9098.0
513.00	8982.3
514.00	8733.2
515.00	8458.0
516.00	8355.1
517.00	8022.8
518.00	7708.2
519.00	7324.0
520.00	7024.6
521.00	6741.0
522.00	6554.1
523.00	6173.6
524.00	5848.8
525.00	5654.7
526.00	5395.0
527.00	5005.2
528.00	4758.0
529.00	4533.3
530.00	4293.2
531.00	4020.4
532.00	3990.3
533.00	3808.4
534.00	3580.0
535.00	3409.4
536.00	3280.2
537.00	3122.5
538.00	3070.4
539.00	3004.8
540.00	2905.0
541.00	2891.2
542.00	2829.8
543.00	2732.1
544.00	2693.3
545.00	2634.1
546.00	2646.6
547.00	2558.2
548.00	2659.7
549.00	2674.2
550.00	2621.8
551.00	2595.0
552.00	2610.6
553.00	2505.6
554.00	2494.2
555.00	2552.6
556.00	2477.4
557.00	2452.9
558.00	2398.1
559.00	2313.9
560.00	2176.4
561.00	2150.4
562.00	2088.5
563.00	2034.7
564.00	1932.9
565.00	1851.5
566.00	1856.9
567.00	1770.4
568.00	1686.6
569.00	1591.3
570.00	1550.0
571.00	1454.9
572.00	1395.7
573.00	1367.6
574.00	1303.8
575.00	1266.7
576.00	1198.7
577.00	1176.5
578.00	1122.6
579.00	1113.7
580.00	1055.3
581.00	1020.5
582.00	992.31
583.00	960.72
584.00	907.63
585.00	912.18
586.00	877.12
587.00	818.87
588.00	833.89
589.00	795.29
590.00	781.19
591.00	746.05
592.00	773.41
593.00	780.49
594.00	726.33
595.00	712.07
596.00	704.60
597.00	679.79
598.00	683.64
599.00	670.85
600.00	669.61
601.00	678.32
602.00	659.98
603.00	658.60
604.00	663.06
605.00	664.45
606.00	666.84
607.00	627.47
608.00	652.82
609.00	670.15
610.00	662.06
611.00	680.94
612.00	674.39
613.00	666.61
614.00	662.53
615.00	674.93
616.00	665.30
617.00	644.57
618.00	633.63
619.00	659.60
620.00	651.28
621.00	661.22
622.00	672.93
623.00	676.32
624.00	665.22
625.00	659.75
626.00	683.48
627.00	657.67
628.00	647.58
629.00	708.06
630.00	693.89
631.00	726.63
632.00	778.95
633.00	783.58
634.00	867.80
635.00	959.03
636.00	977.98
637.00	1030.9
638.00	975.05
639.00	919.96
640.00	893.76
641.00	919.58
642.00	928.98
643.00	1071.4
644.00	1070.8
645.00	1113.0
646.00	1104.0
647.00	1087.2
648.00	1146.3
649.00	1216.8
650.00	1274.3
651.00	1313.9
652.00	1309.5
653.00	1279.3
654.00	1360.5
655.00	1325.3
656.00	1381.4
657.00	1387.0
658.00	1469.7
659.00	1559.8
660.00	1581.8
661.00	1699.2
662.00	1763.2
663.00	1800.3
664.00	1804.4
665.00	1892.5
666.00	1965.3
667.00	2010.3
668.00	2119.9
669.00	2224.2
670.00	2303.5
671.00	2446.4
672.00	2524.7
673.00	2648.4
674.00	2824.7
675.00	2966.8
676.00	3016.3
677.00	3144.3
678.00	3285.2
679.00	3474.7
680.00	3578.2
681.00	3682.5
682.00	3862.0
683.00	3983.7
684.00	4058.4
685.00	4201.8
686.00	4357.0
687.00	4448.6
688.00	4540.7
689.00	4699.1
690.00	4795.3
691.00	4881.4
692.00	5069.5
693.00	5142.7
694.00	5221.7
695.00	5348.8
696.00	5365.0
697.00	5475.5
698.00	5489.2
699.00	5613.7
700.00	5709.4
701.00	5710.0
702.00	5832.4
703.00	5916.9
704.00	5962.1
705.00	6054.8
706.00	6163.4
707.00	6310.4
708.00	6425.0
709.00	6562.0
710.00	6635.0
711.00	6828.7
712.00	6983.2
713.00	7154.3
714.00	7283.5
715.00	7504.6
716.00	7650.9
717.00	7746.9
718.00	7845.5
719.00	7985.8
720.00	8167.5
721.00	8306.5
722.00	8416.5
723.00	8515.9
724.00	8653.9
725.00	8728.4
726.00	8794.1
727.00	8868.3
728.00	8987.2
729.00	9119.3
730.00	9263.5
731.00	9440.2
732.00	9608.9
733.00	9872.6
734.00	10152
735.00	10471
736.00	10823
737.00	11289
738.00	11879
739.00	12444
740.00	13047
741.00	13785
742.00	14568
743.00	15427
744.00	16487
745.00	17489
746.00	18639
747.00	19871
748.00	20992
749.00	22337
750.00	23615
751.00	24749
752.00	25998
753.00	27115
754.00	28238
755.00	29207
756.00	30136
757.00	30900
758.00	31525
759.00	31974
760.00	32336
761.00	32654
762.00	32691
763.00	32671
764.00	32497
765.00	32235
766.00	31858
767.00	31438
768.00	30874
769.00	30369
770.00	29729
771.00	29045
772.00	28346
773.00	27689
774.00	26959
775.00	26261
776.00	25633
777.00	24918
778.00	24289
779.00	23689
780.00	23135
781.00	22577
782.00	21942
783.00	21687
784.00	21217
785.00	20809
786.00	20459
787.00	20190
788.00	19991
789.00	19777
790.00	19731
791.00	19593
792.00	19620
793.00	19737
794.00	19904
795.00	20088
796.00	20273
797.00	20660
798.00	21076
799.00	21556
800.00	21947
801.00	22407
802.00	23055
803.00	23705
804.00	24236
805.00	24999
806.00	25639
807.00	26096
808.00	26706
809.00	27259
810.00	27798
811.00	28304
812.00	28711
813.00	29263
814.00	29666
815.00	29848
816.00	30118
817.00	30228
818.00	30472
819.00	30668
820.00	30773
821.00	30915
822.00	31126
823.00	31331
824.00	31502
825.00	31649
826.00	32050
827.00	32606
828.00	33177
829.00	34061
830.00	34751
831.00	35928
832.00	37318
833.00	38957
834.00	40832
835.00	42884
836.00	45499
837.00	48245
838.00	51434
839.00	55063
840.00	58954
841.00	63427
842.00	68034
843.00	73248
844.00	78781
845.00	84520
846.00	90557
847.00	96708
848.00	1.0382e+05
849.00	1.1110e+05
850.00	1.1735e+05
851.00	1.2430e+05
852.00	1.3198e+05
853.00	1.3803e+05
854.00	1.4452e+05
855.00	1.5073e+05
856.00	1.5672e+05
857.00	1.6196e+05
858.00	1.6661e+05
859.00	1.7073e+05
860.00	1.7433e+05
861.00	1.7622e+05
862.00	1.7935e+05
863.00	1.8080e+05
864.00	1.8070e+05
865.00	1.8100e+05
866.00	1.8031e+05
867.00	1.7904e+05
868.00	1.7693e+05
869.00	1.7250e+05
870.00	1.6954e+05
871.00	1.6525e+05
872.00	1.6115e+05
873.00	1.5617e+05
874.00	1.4967e+05
875.00	1.4549e+05
876.00	1.3859e+05
877.00	1.3281e+05
878.00	1.2574e+05
879.00	1.1993e+05
880.00	1.1362e+05
881.00	1.0794e+05
882.00	1.0117e+05
883.00	95459
884.00	89076
885.00	83294
886.00	77885
887.00	72691
888.00	67511
889.00	62600
890.00	57780
891.00	53426
892.00	49300
893.00	45529
894.00	41760
895.00	38341
896.00	35186
897.00	32318
898.00	29612
899.00	27001
900.00	24502
901.00	22549
902.00	20524
903.00	18714
904.00	17017
905.00	15538
906.00	14129
907.00	12966
908.00	11787
909.00	10745
910.00	9849.5
911.00	8949.1
912.00	8251.4
913.00	7653.6
914.00	7015.8
915.00	6400.2
916.00	5817.3
917.00	5295.8
918.00	4897.3
919.00	4558.5
920.00	4192.3
921.00	3994.9
922.00	3604.2
923.00	3417.1
924.00	3239.6
925.00	2862.9
926.00	2713.6
927.00	2533.6
928.00	2414.0
929.00	2165.8
930.00	1992.0
931.00	1972.9
932.00	1824.6
933.00	1645.1
934.00	1683.1
935.00	1603.7
936.00	1531.3
937.00	1488.6
938.00	1290.5
939.00	1245.4
940.00	1191.6
941.00	1033.5
942.00	1210.8
943.00	859.71
944.00	1103.9
945.00	931.90
946.00	1033.6
947.00	986.61
948.00	722.55
949.00	961.49
950.00	867.80
951.00	590.40
952.00	823.26
953.00	788.97
954.00	551.80
955.00	714.92
956.00	677.70
957.00	585.47
958.00	622.07
959.00	608.28
960.00	587.55
961.00	645.03
962.00	507.34
963.00	666.84
964.00	589.25
965.00	554.10
966.00	458.83
967.00	423.68
968.00	407.32
969.00	358.86
970.00	286.66
971.00	572.37
972.00	267.01
973.00	433.14
974.00	213.15
975.00	446.93
976.00	337.90
977.00	526.83
978.00	435.83
979.00	242.66
980.00	566.90
981.00	468.89
982.00	744.90
983.00	521.52
984.00	620.68
985.00	239.19
986.00	599.19
987.00	303.22
988.00	660.37
989.00	525.14
990.00	476.90
991.00	731.57
992.00	307.77
993.00	483.07
994.00	499.79
995.00	498.56
996.00	650.97
997.00	752.52
998.00	778.26
999.00	622.84
1000.0	479.68
