Wavelength (nm)	T08 abs e
300.00	16045
301.00	15911
302.00	15832
303.00	15684
304.00	15680
305.00	15661
306.00	15700
307.00	15714
308.00	15798
309.00	15920
310.00	15974
311.00	15951
312.00	15829
313.00	15580
314.00	15067
315.00	14476
316.00	13793
317.00	13078
318.00	12435
319.00	11863
320.00	11430
321.00	11125
322.00	10917
323.00	10906
324.00	10924
325.00	11068
326.00	11258
327.00	11450
328.00	11661
329.00	11907
330.00	12110
331.00	12350
332.00	12557
333.00	12749
334.00	12987
335.00	13171
336.00	13391
337.00	13655
338.00	13954
339.00	14267
340.00	14636
341.00	15051
342.00	15533
343.00	16063
344.00	16620
345.00	17167
346.00	17763
347.00	18382
348.00	18909
349.00	19432
350.00	19841
351.00	20265
352.00	20607
353.00	20932
354.00	21305
355.00	21705
356.00	22165
357.00	22787
358.00	23481
359.00	24386
360.00	25497
361.00	26689
362.00	28071
363.00	29577
364.00	31030
365.00	32435
366.00	33786
367.00	34960
368.00	36019
369.00	36715
370.00	37134
371.00	37109
372.00	36866
373.00	36357
374.00	35726
375.00	34962
376.00	34383
377.00	33995
378.00	33842
379.00	34133
380.00	34750
381.00	35568
382.00	36628
383.00	37992
384.00	39455
385.00	40952
386.00	42448
387.00	43984
388.00	45424
389.00	47069
390.00	48903
391.00	51147
392.00	53681
393.00	56537
394.00	60002
395.00	64186
396.00	69486
397.00	75767
398.00	82881
399.00	90321
400.00	98463
401.00	1.0747e+05
402.00	1.1595e+05
403.00	1.2399e+05
404.00	1.3134e+05
405.00	1.3693e+05
406.00	1.4099e+05
407.00	1.4355e+05
408.00	1.4560e+05
409.00	1.4664e+05
410.00	1.4694e+05
411.00	1.4668e+05
412.00	1.4665e+05
413.00	1.4734e+05
414.00	1.4789e+05
415.00	1.4990e+05
416.00	1.5233e+05
417.00	1.5589e+05
418.00	1.6025e+05
419.00	1.6319e+05
420.00	1.6507e+05
421.00	1.6545e+05
422.00	1.6402e+05
423.00	1.6185e+05
424.00	1.5858e+05
425.00	1.5469e+05
426.00	1.4911e+05
427.00	1.4172e+05
428.00	1.3370e+05
429.00	1.2229e+05
430.00	1.0982e+05
431.00	97196
432.00	83835
433.00	69611
434.00	57471
435.00	47390
436.00	37969
437.00	30339
438.00	24098
439.00	19211
440.00	15300
441.00	12049
442.00	9943.9
443.00	8163.9
444.00	6877.5
445.00	5952.7
446.00	5129.8
447.00	4606.3
448.00	4231.6
449.00	3942.0
450.00	3731.3
451.00	3554.9
452.00	3455.1
453.00	3418.3
454.00	3362.7
455.00	3375.0
456.00	3387.2
457.00	3386.9
458.00	3440.5
459.00	3498.8
460.00	3489.7
461.00	3613.5
462.00	3635.0
463.00	3709.1
464.00	3744.9
465.00	3803.4
466.00	3836.9
467.00	3928.6
468.00	3997.3
469.00	4069.6
470.00	4066.9
471.00	4153.6
472.00	4216.5
473.00	4164.0
474.00	4242.6
475.00	4177.8
476.00	4292.5
477.00	4339.2
478.00	4264.3
479.00	4316.7
480.00	4401.4
481.00	4421.6
482.00	4403.2
483.00	4400.8
484.00	4362.0
485.00	4475.2
486.00	4468.6
487.00	4300.2
488.00	4296.5
489.00	4402.0
490.00	4416.3
491.00	4473.3
492.00	4698.4
493.00	4685.1
494.00	4815.0
495.00	5116.1
496.00	5301.4
497.00	5644.6
498.00	6074.7
499.00	6727.4
500.00	7371.0
501.00	8055.5
502.00	8763.0
503.00	9322.5
504.00	9816.5
505.00	10255
506.00	10861
507.00	11173
508.00	11533
509.00	11911
510.00	12311
511.00	12747
512.00	13239
513.00	13742
514.00	14274
515.00	14541
516.00	14925
517.00	15271
518.00	15263
519.00	15364
520.00	15248
521.00	14976
522.00	14544
523.00	13886
524.00	13202
525.00	12475
526.00	11506
527.00	10607
528.00	9732.5
529.00	9045.3
530.00	8304.9
531.00	7686.4
532.00	7417.0
533.00	7003.5
534.00	6879.5
535.00	6967.3
536.00	7056.5
537.00	7419.9
538.00	8058.0
539.00	8631.1
540.00	9477.3
541.00	10048
542.00	10568
543.00	10962
544.00	11191
545.00	11057
546.00	10925
547.00	10541
548.00	10046
549.00	9551.7
550.00	9115.0
551.00	8422.4
552.00	7859.0
553.00	7221.4
554.00	6617.5
555.00	6027.2
556.00	5436.0
557.00	4929.3
558.00	4387.9
559.00	3954.2
560.00	3517.6
561.00	3139.1
562.00	2780.7
563.00	2516.3
564.00	2281.2
565.00	2091.5
566.00	1938.3
567.00	1720.3
568.00	1638.6
569.00	1558.3
570.00	1452.6
571.00	1336.3
572.00	1210.8
573.00	1170.7
574.00	1150.9
575.00	1035.8
576.00	1000.1
577.00	1042.4
578.00	1024.4
579.00	1012.9
580.00	1043.3
581.00	1143.8
582.00	1179.3
583.00	1161.4
584.00	1408.2
585.00	1607.1
586.00	1711.0
587.00	1942.1
588.00	2203.1
589.00	2446.7
590.00	2866.5
591.00	3333.6
592.00	3859.9
593.00	4348.3
594.00	4671.8
595.00	4992.3
596.00	5237.9
597.00	5460.9
598.00	5619.9
599.00	5756.6
600.00	5778.9
601.00	5690.7
602.00	5552.2
603.00	5343.1
604.00	5062.1
605.00	4733.5
606.00	4371.8
607.00	3963.1
608.00	3615.0
609.00	3277.5
610.00	2970.0
611.00	2714.2
612.00	2492.5
613.00	2324.1
614.00	2159.9
615.00	2028.7
616.00	1877.2
617.00	1718.8
618.00	1587.5
619.00	1449.9
620.00	1369.4
621.00	1219.1
622.00	1271.4
623.00	1203.7
624.00	1187.9
625.00	1207.1
626.00	1254.2
627.00	1353.3
628.00	1372.3
629.00	1542.6
630.00	1648.3
631.00	1784.6
632.00	2065.2
633.00	2320.0
634.00	2667.8
635.00	3109.6
636.00	3675.4
637.00	4244.2
638.00	4974.5
639.00	5794.5
640.00	6788.3
641.00	8029.0
642.00	9351.4
643.00	10767
644.00	12520
645.00	14502
646.00	16854
647.00	20109
648.00	24291
649.00	29128
650.00	33843
651.00	38383
652.00	41348
653.00	42001
654.00	40849
655.00	35736
656.00	32904
657.00	31317
658.00	25033
659.00	19749
660.00	15842
661.00	12551
662.00	9887.1
663.00	7674.1
664.00	6075.3
665.00	4793.3
666.00	3754.2
667.00	2977.1
668.00	2365.6
669.00	1887.3
670.00	1473.9
671.00	1171.1
672.00	941.67
673.00	711.40
674.00	628.54
675.00	526.78
676.00	479.26
677.00	357.32
678.00	338.92
679.00	275.73
680.00	241.16
681.00	237.75
682.00	215.27
683.00	137.35
684.00	145.61
685.00	169.37
686.00	142.97
687.00	162.99
688.00	162.90
689.00	180.70
690.00	169.03
691.00	170.91
692.00	138.29
693.00	187.77
694.00	225.24
695.00	131.39
696.00	168.86
697.00	165.16
698.00	170.60
699.00	163.93
700.00	146.37
