Wavelength (nm)	CoproP I (in DMF).abs
300.00	0.069900
301.00	0.071302
302.00	0.072761
303.00	0.073756
304.00	0.074919
305.00	0.076720
306.00	0.077785
307.00	0.080055
308.00	0.080829
309.00	0.083174
310.00	0.084600
311.00	0.085815
312.00	0.087400
313.00	0.088765
314.00	0.090698
315.00	0.092269
316.00	0.094366
317.00	0.095637
318.00	0.097147
319.00	0.099178
320.00	0.099966
321.00	0.10207
322.00	0.10367
323.00	0.10480
324.00	0.10648
325.00	0.10748
326.00	0.10926
327.00	0.11039
328.00	0.11112
329.00	0.11272
330.00	0.11326
331.00	0.11402
332.00	0.11598
333.00	0.11743
334.00	0.11887
335.00	0.12144
336.00	0.12370
337.00	0.12680
338.00	0.13022
339.00	0.13418
340.00	0.13863
341.00	0.14384
342.00	0.14899
343.00	0.15461
344.00	0.16146
345.00	0.16788
346.00	0.17448
347.00	0.18194
348.00	0.18882
349.00	0.19524
350.00	0.20157
351.00	0.20716
352.00	0.21348
353.00	0.21915
354.00	0.22655
355.00	0.23450
356.00	0.24372
357.00	0.25427
358.00	0.26559
359.00	0.27827
360.00	0.29263
361.00	0.30730
362.00	0.32297
363.00	0.34014
364.00	0.35759
365.00	0.37607
366.00	0.39499
367.00	0.41499
368.00	0.43410
369.00	0.45369
370.00	0.47322
371.00	0.49092
372.00	0.50743
373.00	0.52072
374.00	0.53243
375.00	0.54087
376.00	0.54952
377.00	0.55808
378.00	0.56648
379.00	0.57625
380.00	0.58830
381.00	0.60403
382.00	0.62136
383.00	0.64080
384.00	0.66165
385.00	0.68567
386.00	0.71125
387.00	0.73875
388.00	0.76750
389.00	0.79710
390.00	0.82835
391.00	0.85921
392.00	0.88966
393.00	0.91923
394.00	0.94580
395.00	0.96821
396.00	0.98586
397.00	0.99745
398.00	1.0000
399.00	0.99541
400.00	0.98240
401.00	0.96051
402.00	0.92948
403.00	0.89163
404.00	0.84812
405.00	0.79834
406.00	0.74902
407.00	0.69655
408.00	0.64161
409.00	0.58840
410.00	0.53742
411.00	0.48784
412.00	0.44169
413.00	0.39774
414.00	0.35873
415.00	0.32149
416.00	0.28861
417.00	0.25799
418.00	0.23056
419.00	0.20611
420.00	0.18348
421.00	0.16394
422.00	0.14688
423.00	0.13188
424.00	0.11853
425.00	0.10651
426.00	0.095374
427.00	0.085693
428.00	0.076729
429.00	0.069895
430.00	0.062606
431.00	0.057114
432.00	0.052423
433.00	0.046569
434.00	0.042198
435.00	0.039163
436.00	0.035444
437.00	0.032667
438.00	0.030078
439.00	0.027634
440.00	0.025823
441.00	0.023572
442.00	0.021869
443.00	0.021067
444.00	0.020138
445.00	0.018464
446.00	0.018337
447.00	0.017451
448.00	0.017451
449.00	0.016691
450.00	0.016358
451.00	0.015382
452.00	0.015321
453.00	0.015317
454.00	0.015199
455.00	0.014866
456.00	0.015551
457.00	0.015589
458.00	0.015415
459.00	0.015256
460.00	0.016015
461.00	0.016147
462.00	0.015940
463.00	0.016846
464.00	0.016803
465.00	0.017408
466.00	0.018501
467.00	0.019167
468.00	0.019538
469.00	0.019758
470.00	0.020448
471.00	0.021569
472.00	0.020861
473.00	0.021672
474.00	0.022582
475.00	0.023023
476.00	0.023623
477.00	0.024393
478.00	0.025387
479.00	0.027348
480.00	0.029895
481.00	0.032235
482.00	0.036044
483.00	0.039440
484.00	0.041701
485.00	0.047667
486.00	0.048919
487.00	0.054032
488.00	0.059670
489.00	0.061546
490.00	0.065514
491.00	0.070669
492.00	0.074642
493.00	0.077560
494.00	0.080153
495.00	0.083502
496.00	0.085810
497.00	0.087208
498.00	0.086955
499.00	0.084244
500.00	0.081941
501.00	0.079863
502.00	0.078066
503.00	0.075214
504.00	0.070158
505.00	0.064178
506.00	0.058718
507.00	0.053005
508.00	0.048094
509.00	0.042221
510.00	0.036804
511.00	0.032024
512.00	0.028351
513.00	0.025992
514.00	0.023919
515.00	0.021921
516.00	0.021213
517.00	0.020523
518.00	0.021259
519.00	0.023070
520.00	0.025443
521.00	0.028764
522.00	0.031302
523.00	0.036175
524.00	0.041053
525.00	0.046368
526.00	0.050003
527.00	0.052859
528.00	0.055355
529.00	0.057118
530.00	0.058657
531.00	0.057381
532.00	0.055589
533.00	0.051931
534.00	0.048966
535.00	0.045237
536.00	0.040758
537.00	0.035537
538.00	0.029923
539.00	0.024590
540.00	0.020936
541.00	0.017634
542.00	0.015701
543.00	0.013820
544.00	0.012798
545.00	0.011841
546.00	0.010762
547.00	0.010166
548.00	0.0093502
549.00	0.0093221
550.00	0.0095331
551.00	0.0093643
552.00	0.0093268
553.00	0.0099224
554.00	0.010659
555.00	0.011953
556.00	0.012385
557.00	0.013984
558.00	0.015012
559.00	0.016517
560.00	0.017939
561.00	0.019909
562.00	0.023229
563.00	0.026747
564.00	0.031902
565.00	0.037137
566.00	0.040734
567.00	0.041771
568.00	0.040706
569.00	0.038375
570.00	0.036095
571.00	0.034721
572.00	0.033455
573.00	0.032620
574.00	0.031283
575.00	0.030134
576.00	0.029238
577.00	0.027418
578.00	0.025359
579.00	0.024505
580.00	0.021578
581.00	0.019430
582.00	0.016484
583.00	0.015912
584.00	0.014022
585.00	0.011583
586.00	0.011053
587.00	0.010105
588.00	0.0093408
589.00	0.0090594
590.00	0.0085012
591.00	0.0088483
592.00	0.0088155
593.00	0.0083605
594.00	0.0092423
595.00	0.0093690
596.00	0.0092142
597.00	0.0086982
598.00	0.0078445
599.00	0.0068595
600.00	0.0066344
601.00	0.0062357
602.00	0.0059918
603.00	0.0058933
604.00	0.0058792
605.00	0.0064655
606.00	0.0066156
607.00	0.0071973
608.00	0.0079618
609.00	0.0089609
610.00	0.0096832
611.00	0.010190
612.00	0.010964
613.00	0.011592
614.00	0.012554
615.00	0.014036
616.00	0.015696
617.00	0.018328
618.00	0.021883
619.00	0.025922
620.00	0.029069
621.00	0.030270
622.00	0.029669
623.00	0.027329
624.00	0.023947
625.00	0.019299
626.00	0.014908
627.00	0.011456
628.00	0.0086935
629.00	0.0064327
630.00	0.0054383
631.00	0.0047723
632.00	0.0039936
633.00	0.0035809
634.00	0.0032760
635.00	0.0029758
636.00	0.0021456
637.00	0.0022957
638.00	0.0026287
639.00	0.0023895
640.00	0.0018690
641.00	0.0018985
642.00	0.0017509
643.00	0.0015739
644.00	0.0023848
645.00	0.0027976
646.00	0.0027694
647.00	0.0029946
648.00	0.0026099
649.00	0.0022535
650.00	0.0019673
651.00	0.0018395
652.00	0.0019280
653.00	0.0018296
654.00	0.0012001
655.00	0.0013238
656.00	0.0013181
657.00	0.0014321
658.00	0.0014865
659.00	0.0017214
660.00	0.0018395
661.00	0.0016231
662.00	0.0017903
663.00	0.0018198
664.00	0.0015935
665.00	0.0015542
666.00	0.0013575
667.00	0.0012886
668.00	0.0015640
669.00	0.0014362
670.00	0.0013771
671.00	0.0015837
672.00	0.0017509
673.00	0.0019378
674.00	0.0015345
675.00	0.0017411
676.00	0.0015640
677.00	0.0013083
678.00	0.0013968
679.00	0.0014755
680.00	0.0017804
681.00	0.0014460
682.00	0.0010329
683.00	0.0012886
684.00	0.0014263
685.00	0.0012591
686.00	0.0014657
687.00	0.0013575
688.00	0.0014362
689.00	0.0014067
690.00	0.0015149
691.00	0.0013575
692.00	0.0014558
693.00	0.0012984
694.00	0.0014460
695.00	0.0015935
696.00	0.0014165
697.00	0.0013378
698.00	0.0015149
699.00	0.0014165
700.00	0.0014657
