Wavelength (nm)	"120, M 1984_837, ZZZ-7"
200.00	
201.00	
202.00	
203.00	
204.00	
205.00	
206.00	
207.00	
208.00	
209.00	
210.00	
211.00	
212.00	
213.00	
214.00	
215.00	
216.00	
217.00	
218.00	
219.00	
220.00	
221.00	
222.00	
223.00	
224.00	
225.00	
226.00	
227.00	
228.00	
229.00	
230.00	
231.00	
232.00	
233.00	
234.00	
235.00	
236.00	
237.00	
238.00	
239.00	
240.00	
241.00	
242.00	
243.00	
244.00	
245.00	
246.00	
247.00	
248.00	
249.00	
250.00	0.58793
251.00	0.59611
252.00	0.60101
253.00	0.60591
254.00	0.61081
255.00	0.61557
256.00	0.61954
257.00	0.62352
258.00	0.62750
259.00	0.63147
260.00	0.63531
261.00	0.63791
262.00	0.64051
263.00	0.64311
264.00	0.64571
265.00	0.64825
266.00	0.64973
267.00	0.65120
268.00	0.65268
269.00	0.65360
270.00	0.65396
271.00	0.65431
272.00	0.65347
273.00	0.65263
274.00	0.65179
275.00	0.65046
276.00	0.64906
277.00	0.64765
278.00	0.64601
279.00	0.64282
280.00	0.63962
281.00	0.63642
282.00	0.63239
283.00	0.62771
284.00	0.62304
285.00	0.61836
286.00	0.61342
287.00	0.60832
288.00	0.60322
289.00	0.59812
290.00	0.59286
291.00	0.58745
292.00	0.58204
293.00	0.57664
294.00	0.57440
295.00	0.57230
296.00	0.57020
297.00	0.56831
298.00	0.56721
299.00	0.56611
300.00	0.56508
301.00	0.56625
302.00	0.56742
303.00	0.56859
304.00	0.57077
305.00	0.57543
306.00	0.58009
307.00	0.58975
308.00	0.60199
309.00	0.61618
310.00	0.63689
311.00	0.65760
312.00	0.67798
313.00	0.69814
314.00	0.71830
315.00	0.73816
316.00	0.75237
317.00	0.76659
318.00	0.78080
319.00	0.79501
320.00	0.80800
321.00	0.82056
322.00	0.83312
323.00	0.84568
324.00	0.85824
325.00	0.87080
326.00	0.88274
327.00	0.89208
328.00	0.90142
329.00	0.91076
330.00	0.92010
331.00	0.92939
332.00	0.93835
333.00	0.94731
334.00	0.95626
335.00	0.96522
336.00	0.97191
337.00	0.97814
338.00	0.98437
339.00	0.98935
340.00	0.99285
341.00	0.99636
342.00	0.99858
343.00	0.99929
344.00	1.0000
345.00	0.99874
346.00	0.99748
347.00	0.99547
348.00	0.99079
349.00	0.98611
350.00	0.98071
351.00	0.97482
352.00	0.96893
353.00	0.96304
354.00	0.95668
355.00	0.94915
356.00	0.94162
357.00	0.93409
358.00	0.92656
359.00	0.91903
360.00	0.91105
361.00	0.90260
362.00	0.89415
363.00	0.88570
364.00	0.87725
365.00	0.86880
366.00	0.85824
367.00	0.84669
368.00	0.83513
369.00	0.82357
370.00	0.81202
371.00	0.80046
372.00	0.78890
373.00	0.77539
374.00	0.76176
375.00	0.74813
376.00	0.73449
377.00	0.72086
378.00	0.70723
379.00	0.69227
380.00	0.67203
381.00	0.65178
382.00	0.63153
383.00	0.61129
384.00	0.59104
385.00	0.57183
386.00	0.55337
387.00	0.53491
388.00	0.51645
389.00	0.49799
390.00	0.47953
391.00	0.46107
392.00	0.44306
393.00	0.42957
394.00	0.41608
395.00	0.40259
396.00	0.38910
397.00	0.37561
398.00	0.36212
399.00	0.34863
400.00	0.33514
401.00	0.32402
402.00	0.31331
403.00	0.30260
404.00	0.29189
405.00	0.28118
406.00	0.27047
407.00	0.25976
408.00	0.25077
409.00	0.24238
410.00	0.23399
411.00	0.22561
412.00	0.21722
413.00	0.20883
414.00	0.20044
415.00	0.19205
416.00	0.18366
417.00	0.17646
418.00	0.17019
419.00	0.16393
420.00	0.15766
421.00	0.15139
422.00	0.14513
423.00	0.13886
424.00	0.13259
425.00	0.12740
426.00	0.12235
427.00	0.11730
428.00	0.11226
429.00	0.10721
430.00	0.10216
431.00	0.097115
432.00	0.093609
433.00	0.090563
434.00	0.087517
435.00	0.084471
436.00	0.081425
437.00	0.078380
438.00	0.075334
439.00	0.072288
440.00	0.069348
441.00	0.067008
442.00	0.064668
443.00	0.062328
444.00	0.059988
445.00	0.057648
446.00	0.056257
447.00	0.055673
448.00	0.055090
449.00	0.054506
450.00	0.053961
451.00	0.054335
452.00	0.054709
453.00	0.055083
454.00	0.055458
455.00	0.056042
456.00	0.057001
457.00	0.057960
458.00	0.058919
459.00	0.059878
460.00	0.060837
461.00	0.061797
462.00	0.062773
463.00	0.064019
464.00	0.065264
465.00	0.066510
466.00	0.067756
467.00	0.069002
468.00	0.070247
469.00	0.071493
470.00	0.072739
471.00	0.074427
472.00	0.076374
473.00	0.078320
474.00	0.080267
475.00	0.082214
476.00	0.084161
477.00	0.086108
478.00	0.088055
479.00	0.090002
480.00	0.092149
481.00	0.094409
482.00	0.096669
483.00	0.098928
484.00	0.10119
485.00	0.10345
486.00	0.10571
487.00	0.10797
488.00	0.11023
489.00	0.11249
490.00	0.11475
491.00	0.11716
492.00	0.11979
493.00	0.12243
494.00	0.12506
495.00	0.12770
496.00	0.13033
497.00	0.13296
498.00	0.13560
499.00	0.13823
500.00	0.14087
501.00	0.14356
502.00	0.14671
503.00	0.14987
504.00	0.15302
505.00	0.15618
506.00	0.15933
507.00	0.16249
508.00	0.16564
509.00	0.16877
510.00	0.17189
511.00	0.17501
512.00	0.17812
513.00	0.18124
514.00	0.18436
515.00	0.18748
516.00	0.19059
517.00	0.19371
518.00	0.19683
519.00	0.19994
520.00	0.20366
521.00	0.20742
522.00	0.21117
523.00	0.21492
524.00	0.21867
525.00	0.22242
526.00	0.22617
527.00	0.22992
528.00	0.23368
529.00	0.23743
530.00	0.24118
531.00	0.24518
532.00	0.24942
533.00	0.25365
534.00	0.25789
535.00	0.26212
536.00	0.26636
537.00	0.27059
538.00	0.27483
539.00	0.27906
540.00	0.28330
541.00	0.28766
542.00	0.29211
543.00	0.29655
544.00	0.30100
545.00	0.30545
546.00	0.30989
547.00	0.31434
548.00	0.31879
549.00	0.32323
550.00	0.32768
551.00	0.33213
552.00	0.33658
553.00	0.34041
554.00	0.34423
555.00	0.34805
556.00	0.35188
557.00	0.35570
558.00	0.35953
559.00	0.36335
560.00	0.36717
561.00	0.37055
562.00	0.37377
563.00	0.37699
564.00	0.38021
565.00	0.38343
566.00	0.38666
567.00	0.38988
568.00	0.39310
569.00	0.39608
570.00	0.39855
571.00	0.40102
572.00	0.40349
573.00	0.40597
574.00	0.40844
575.00	0.41091
576.00	0.41265
577.00	0.41436
578.00	0.41606
579.00	0.41777
580.00	0.41948
581.00	0.41916
582.00	0.41884
583.00	0.41852
584.00	0.41820
585.00	0.41742
586.00	0.41598
587.00	0.41455
588.00	0.41311
589.00	0.41167
590.00	0.41009
591.00	0.40837
592.00	0.40666
593.00	0.40495
594.00	0.40324
595.00	0.40153
596.00	0.39860
597.00	0.39558
598.00	0.39255
599.00	0.38952
600.00	0.38649
601.00	0.38346
602.00	0.38007
603.00	0.37639
604.00	0.37271
605.00	0.36902
606.00	0.36534
607.00	0.36166
608.00	0.35773
609.00	0.35340
610.00	0.34906
611.00	0.34472
612.00	0.34039
613.00	0.33605
614.00	0.33171
615.00	0.32737
616.00	0.32246
617.00	0.31698
618.00	0.31150
619.00	0.30603
620.00	0.30055
621.00	0.29507
622.00	0.28959
623.00	0.28412
624.00	0.27810
625.00	0.27198
626.00	0.26587
627.00	0.25975
628.00	0.25363
629.00	0.24752
630.00	0.24140
631.00	0.23528
632.00	0.22970
633.00	0.22413
634.00	0.21857
635.00	0.21300
636.00	0.20744
637.00	0.20187
638.00	0.19630
639.00	0.19076
640.00	0.18540
641.00	0.18004
642.00	0.17468
643.00	0.16931
644.00	0.16395
645.00	0.15859
646.00	0.15323
647.00	0.14787
648.00	0.14251
649.00	0.13714
650.00	0.13246
651.00	0.12779
652.00	0.12311
653.00	0.11844
654.00	0.11376
655.00	0.10908
656.00	0.10441
657.00	0.099734
658.00	0.095059
659.00	0.091284
660.00	0.088038
661.00	0.084792
662.00	0.081546
663.00	0.078299
664.00	0.075053
665.00	0.071807
666.00	0.069103
667.00	0.066465
668.00	0.063828
669.00	0.061190
670.00	0.058552
671.00	0.055915
672.00	0.053277
673.00	0.050852
674.00	0.048574
675.00	0.046296
676.00	0.044019
677.00	0.041741
678.00	0.039463
679.00	0.037185
680.00	0.035034
681.00	0.033193
682.00	0.031352
683.00	0.029511
684.00	0.027670
685.00	0.025829
686.00	0.024015
687.00	0.022410
688.00	0.020806
689.00	0.019201
690.00	0.017597
691.00	0.015992
692.00	0.014440
693.00	0.013312
694.00	0.012184
695.00	0.011055
696.00	0.0099271
697.00	0.0087989
698.00	0.0080636
699.00	0.0075132
700.00	0.0069628
701.00	0.0064123
702.00	0.0058619
703.00	0.0053115
704.00	0.0047890
705.00	0.0043260
706.00	0.0038630
707.00	0.0034000
708.00	0.0029370
709.00	0.0024740
710.00	0.0022270
711.00	0.0020066
712.00	0.0017862
713.00	0.0015658
714.00	0.0013454
715.00	0.0011250
716.00	0.0011250
717.00	0.0011250
718.00	0.0011250
719.00	0.0011250
720.00	0.0011250
721.00	
722.00	
723.00	
724.00	
725.00	
726.00	
727.00	
728.00	
729.00	
730.00	
731.00	
732.00	
733.00	
734.00	
735.00	
736.00	
737.00	
738.00	
739.00	
740.00	
741.00	
742.00	
743.00	
744.00	
745.00	
746.00	
747.00	
748.00	
749.00	
750.00	
751.00	
752.00	
753.00	
754.00	
755.00	
756.00	
757.00	
758.00	
759.00	
760.00	
761.00	
762.00	
763.00	
764.00	
765.00	
766.00	
767.00	
768.00	
769.00	
770.00	
771.00	
772.00	
773.00	
774.00	
775.00	
776.00	
777.00	
778.00	
779.00	
780.00	
781.00	
782.00	
783.00	
784.00	
785.00	
786.00	
787.00	
788.00	
789.00	
790.00	
791.00	
792.00	
793.00	
794.00	
795.00	
796.00	
797.00	
798.00	
799.00	
800.00	
801.00	
802.00	
803.00	
804.00	
805.00	
806.00	
807.00	
808.00	
809.00	
810.00	
811.00	
812.00	
813.00	
814.00	
815.00	
816.00	
817.00	
818.00	
819.00	
820.00	
821.00	
822.00	
823.00	
824.00	
825.00	
826.00	
827.00	
828.00	
829.00	
830.00	
831.00	
832.00	
833.00	
834.00	
835.00	
836.00	
837.00	
838.00	
839.00	
840.00	
841.00	
842.00	
843.00	
844.00	
845.00	
846.00	
847.00	
848.00	
849.00	
850.00	
851.00	
852.00	
853.00	
854.00	
855.00	
856.00	
857.00	
858.00	
859.00	
860.00	
861.00	
862.00	
863.00	
864.00	
865.00	
866.00	
867.00	
868.00	
869.00	
870.00	
871.00	
872.00	
873.00	
874.00	
875.00	
876.00	
877.00	
878.00	
879.00	
880.00	
881.00	
882.00	
883.00	
884.00	
885.00	
886.00	
887.00	
888.00	
889.00	
890.00	
891.00	
892.00	
893.00	
894.00	
895.00	
896.00	
897.00	
898.00	
899.00	
900.00	
901.00	
902.00	
903.00	
904.00	
905.00	
906.00	
907.00	
908.00	
909.00	
910.00	
911.00	
912.00	
913.00	
914.00	
915.00	
916.00	
917.00	
918.00	
919.00	
920.00	
921.00	
922.00	
923.00	
924.00	
925.00	
926.00	
927.00	
928.00	
929.00	
930.00	
931.00	
932.00	
933.00	
934.00	
935.00	
936.00	
937.00	
938.00	
939.00	
940.00	
941.00	
942.00	
943.00	
944.00	
945.00	
946.00	
947.00	
948.00	
949.00	
950.00	
951.00	
952.00	
953.00	
954.00	
955.00	
956.00	
957.00	
958.00	
959.00	
960.00	
961.00	
962.00	
963.00	
964.00	
965.00	
966.00	
967.00	
968.00	
969.00	
970.00	
971.00	
972.00	
973.00	
974.00	
975.00	
976.00	
977.00	
978.00	
979.00	
980.00	
981.00	
982.00	
983.00	
984.00	
985.00	
986.00	
987.00	
988.00	
989.00	
990.00	
991.00	
992.00	
993.00	
994.00	
995.00	
996.00	
997.00	
998.00	
999.00	
1000.0	
1001.0	
1002.0	
1003.0	
1004.0	
1005.0	
1006.0	
1007.0	
1008.0	
1009.0	
1010.0	
1011.0	
1012.0	
1013.0	
1014.0	
1015.0	
1016.0	
1017.0	
1018.0	
1019.0	
1020.0	
1021.0	
1022.0	
1023.0	
1024.0	
1025.0	
1026.0	
1027.0	
1028.0	
1029.0	
1030.0	
1031.0	
1032.0	
1033.0	
1034.0	
1035.0	
1036.0	
1037.0	
1038.0	
1039.0	
1040.0	
1041.0	
1042.0	
1043.0	
1044.0	
1045.0	
1046.0	
1047.0	
1048.0	
1049.0	
1050.0	
1051.0	
1052.0	
1053.0	
1054.0	
1055.0	
1056.0	
1057.0	
1058.0	
1059.0	
1060.0	
1061.0	
1062.0	
1063.0	
1064.0	
1065.0	
1066.0	
1067.0	
1068.0	
1069.0	
1070.0	
1071.0	
1072.0	
1073.0	
1074.0	
1075.0	
1076.0	
1077.0	
1078.0	
1079.0	
1080.0	
1081.0	
1082.0	
1083.0	
1084.0	
1085.0	
1086.0	
1087.0	
1088.0	
1089.0	
1090.0	
1091.0	
1092.0	
1093.0	
1094.0	
1095.0	
1096.0	
1097.0	
1098.0	
1099.0	
1100.0	
1101.0	
1102.0	
1103.0	
1104.0	
1105.0	
1106.0	
1107.0	
1108.0	
1109.0	
1110.0	
1111.0	
1112.0	
1113.0	
1114.0	
1115.0	
1116.0	
1117.0	
1118.0	
1119.0	
1120.0	
1121.0	
1122.0	
1123.0	
1124.0	
1125.0	
1126.0	
1127.0	
1128.0	
1129.0	
1130.0	
1131.0	
1132.0	
1133.0	
1134.0	
1135.0	
1136.0	
1137.0	
1138.0	
1139.0	
1140.0	
1141.0	
1142.0	
1143.0	
1144.0	
1145.0	
1146.0	
1147.0	
1148.0	
1149.0	
1150.0	
1151.0	
1152.0	
1153.0	
1154.0	
1155.0	
1156.0	
1157.0	
1158.0	
1159.0	
1160.0	
1161.0	
1162.0	
1163.0	
1164.0	
1165.0	
1166.0	
1167.0	
1168.0	
1169.0	
1170.0	
1171.0	
1172.0	
1173.0	
1174.0	
1175.0	
1176.0	
1177.0	
1178.0	
1179.0	
1180.0	
1181.0	
1182.0	
1183.0	
1184.0	
1185.0	
1186.0	
1187.0	
1188.0	
1189.0	
1190.0	
1191.0	
1192.0	
1193.0	
1194.0	
1195.0	
1196.0	
1197.0	
1198.0	
1199.0	
1200.0	
