Wavelength (nm)	CHL003_Chl a, 90Ace (Clementson, 2019).abs
320.60	0.43789
321.40	0.37024
322.30	0.38037
323.10	0.37500
324.00	0.37182
324.90	0.36038
325.70	0.35464
326.60	0.33567
327.40	0.33673
328.30	0.33578
329.10	0.33076
330.00	0.32687
330.80	0.32518
331.70	0.32691
332.50	0.32577
333.40	0.31925
334.20	0.32007
335.10	0.31286
335.90	0.31346
336.80	0.30050
337.70	0.30077
338.50	0.29744
339.40	0.29690
340.20	0.28846
341.10	0.28530
341.90	0.28308
342.80	0.29054
343.60	0.28509
344.50	0.27971
345.30	0.28802
346.20	0.28434
347.00	0.28107
347.90	0.28295
348.70	0.29194
349.60	0.28711
350.50	0.29531
351.30	0.30064
352.20	0.30817
353.00	0.31107
353.90	0.32098
354.70	0.32229
355.60	0.33108
356.40	0.33533
357.30	0.34343
358.10	0.34708
359.00	0.35088
359.80	0.36026
360.70	0.36661
361.50	0.37186
362.40	0.38111
363.30	0.38709
364.10	0.39696
365.00	0.40723
365.80	0.41313
366.70	0.42050
367.50	0.43206
368.40	0.44120
369.20	0.45365
370.10	0.45870
370.90	0.46685
371.80	0.47707
372.60	0.48485
373.50	0.49291
374.30	0.49870
375.20	0.50081
376.10	0.50686
376.90	0.51081
377.80	0.51282
378.60	0.51579
379.50	0.51617
380.30	0.51794
381.20	0.51880
382.00	0.52165
382.90	0.51949
383.70	0.51802
384.60	0.51809
385.40	0.51676
386.30	0.51755
387.10	0.51469
388.00	0.51444
388.90	0.51280
389.70	0.51071
390.60	0.50921
391.40	0.51015
392.30	0.51216
393.10	0.51414
394.00	0.51798
394.80	0.52322
395.70	0.53178
396.50	0.53846
397.40	0.55268
398.20	0.56522
399.10	0.58106
399.90	0.59587
400.80	0.61617
401.70	0.63465
402.50	0.65215
403.40	0.66739
404.20	0.68766
405.10	0.70365
405.90	0.71707
406.80	0.73061
407.60	0.74340
408.50	0.75340
409.30	0.75780
410.20	0.76356
411.00	0.76628
411.90	0.76849
412.70	0.76646
413.60	0.76352
414.50	0.75907
415.30	0.75438
416.20	0.74972
417.00	0.74758
417.90	0.74560
418.70	0.74619
419.60	0.75111
420.40	0.75836
421.30	0.76994
422.10	0.78811
423.00	0.80506
423.80	0.82874
424.70	0.85276
425.50	0.87928
426.40	0.90788
427.30	0.93271
428.10	0.95659
429.00	0.97771
429.80	0.99233
430.70	1.00000
431.50	0.99958
432.40	0.99039
433.20	0.97039
434.10	0.94028
434.90	0.90075
435.80	0.85326
436.60	0.79711
437.50	0.73435
438.30	0.66977
439.20	0.60222
440.10	0.53771
440.90	0.47392
441.80	0.41149
442.60	0.35956
443.50	0.30697
444.30	0.26147
445.20	0.22269
446.00	0.18537
446.90	0.15393
447.70	0.12464
448.60	0.10428
449.40	0.094051
450.30	0.078089
451.10	0.067672
452.00	0.056896
452.90	0.048258
453.70	0.041312
454.60	0.036736
455.40	0.030627
456.30	0.025922
457.10	0.024089
458.00	0.021259
458.80	0.020546
459.70	0.018881
460.50	0.017463
461.40	0.015668
462.20	0.016664
463.10	0.013965
463.90	0.011908
464.80	0.012431
465.70	0.012910
466.50	0.012455
467.40	0.011248
468.20	0.010264
469.10	0.011366
469.90	0.011236
470.80	0.011774
471.60	0.013254
472.50	0.010177
473.30	0.012118
474.20	0.011357
475.00	0.012022
475.90	0.010201
476.70	0.011345
477.60	0.011271
478.50	0.012190
479.30	0.012498
480.20	0.013616
481.00	0.012106
481.90	0.012441
482.70	0.012515
483.60	0.012528
484.40	0.013437
485.30	0.015565
486.10	0.014710
487.00	0.015776
487.80	0.015841
488.70	0.018405
489.50	0.015968
490.40	0.018848
491.30	0.017268
492.10	0.017315
493.00	0.018510
493.80	0.019868
494.70	0.018297
495.50	0.019645
496.40	0.018072
497.20	0.019175
498.10	0.019448
498.90	0.020252
499.80	0.020401
500.60	0.021269
501.50	0.019199
502.30	0.020652
503.20	0.019972
504.10	0.018983
504.90	0.019923
505.80	0.020673
506.60	0.019509
507.50	0.020027
508.30	0.020605
509.20	0.020152
510.00	0.022166
510.90	0.021723
511.70	0.021087
512.60	0.021650
513.40	0.022520
514.30	0.022791
515.10	0.021327
516.00	0.023988
516.90	0.023851
517.70	0.025933
518.60	0.026772
519.40	0.027390
520.30	0.027954
521.10	0.028561
522.00	0.029245
522.80	0.032174
523.70	0.031630
524.50	0.032631
525.40	0.032409
526.20	0.033460
527.10	0.035387
527.90	0.034956
528.80	0.036353
529.70	0.036678
530.50	0.037283
531.40	0.038027
532.20	0.038469
533.10	0.038839
533.90	0.037767
534.80	0.038959
535.60	0.038073
536.50	0.038786
537.30	0.038874
538.20	0.038210
539.00	0.039264
539.90	0.038890
540.70	0.036768
541.60	0.038453
542.50	0.037192
543.30	0.036831
544.20	0.036691
545.00	0.036353
545.90	0.035570
546.70	0.037534
547.60	0.035326
548.40	0.036652
549.30	0.034290
550.10	0.038502
551.00	0.035029
551.80	0.035958
552.70	0.035824
553.50	0.037821
554.40	0.038108
555.30	0.040119
556.10	0.040429
557.00	0.042991
557.80	0.041776
558.70	0.046478
559.50	0.046717
560.40	0.051033
561.20	0.051813
562.10	0.055113
562.90	0.054853
563.80	0.059963
564.60	0.059611
565.50	0.064257
566.30	0.066616
567.20	0.069172
568.10	0.071025
568.90	0.075226
569.80	0.075094
570.60	0.079209
571.50	0.080873
572.30	0.083555
573.20	0.083698
574.00	0.086964
574.90	0.088068
575.70	0.090662
576.60	0.089800
577.40	0.092063
578.30	0.093035
579.10	0.094628
580.00	0.093575
580.90	0.096444
581.70	0.094814
582.60	0.096443
583.40	0.094155
584.30	0.095290
585.10	0.092756
586.00	0.091786
586.80	0.089936
587.70	0.088943
588.50	0.087619
589.40	0.087720
590.20	0.084554
591.10	0.085042
591.90	0.083882
592.80	0.083892
593.70	0.085275
594.50	0.085029
595.40	0.086585
596.20	0.090569
597.10	0.092231
597.90	0.096975
598.80	0.097378
599.60	0.10363
600.50	0.10652
601.30	0.11272
602.20	0.11621
603.00	0.12136
603.90	0.12503
604.70	0.13083
605.60	0.13397
606.50	0.13988
607.30	0.14526
608.20	0.14915
609.00	0.15172
609.90	0.15556
610.70	0.15715
611.60	0.16096
612.40	0.16334
613.30	0.16506
614.10	0.16670
615.00	0.16744
615.80	0.16827
616.70	0.16993
617.50	0.16863
618.40	0.16924
619.30	0.16724
620.10	0.16636
621.00	0.16415
621.80	0.16381
622.70	0.15973
623.50	0.15770
624.40	0.15282
625.20	0.15090
626.10	0.14648
626.90	0.14399
627.80	0.13667
628.60	0.13453
629.50	0.13059
630.30	0.12796
631.20	0.12271
632.10	0.12145
632.90	0.11958
633.80	0.11853
634.60	0.11438
635.50	0.11596
636.30	0.11479
637.20	0.11678
638.00	0.11789
638.90	0.12105
639.70	0.12495
640.60	0.13198
641.40	0.13469
642.30	0.14306
643.10	0.15110
644.00	0.16244
644.90	0.17509
645.70	0.19098
646.60	0.20681
647.40	0.22662
648.30	0.25016
649.10	0.27785
650.00	0.30554
650.80	0.34287
651.70	0.37809
652.50	0.41948
653.40	0.46223
654.20	0.50961
655.10	0.55599
655.90	0.60620
656.80	0.65451
657.70	0.70078
658.50	0.74418
659.40	0.78317
660.20	0.81400
661.10	0.84102
661.90	0.85606
662.80	0.86456
663.60	0.86366
664.50	0.85135
665.30	0.83088
666.20	0.80346
667.00	0.76580
667.90	0.72272
668.70	0.67421
669.60	0.62520
670.50	0.56949
671.30	0.50317
672.20	0.44857
673.00	0.41111
673.90	0.36776
674.70	0.32648
675.60	0.28110
676.40	0.24708
677.30	0.21178
678.10	0.18099
679.00	0.15670
679.80	0.13105
680.70	0.11083
681.50	0.094572
682.40	0.078192
683.30	0.066889
684.10	0.059540
685.00	0.047517
685.80	0.040788
686.70	0.035024
687.50	0.029511
688.40	0.025989
689.20	0.022226
690.10	0.019107
690.90	0.016042
691.80	0.014776
692.60	0.013530
693.50	0.011802
694.30	0.011301
695.20	0.0096967
696.10	0.0077302
696.90	0.0052993
697.80	0.0052797
698.60	0.0053338
699.50	0.0067494
700.30	0.0053442
701.20	0.0034147
702.00	0.0053068
702.90	0.0019583
703.70	0.0043384
704.60	0.0015730
705.40	0.0053203
706.30	0.0012451
707.10	0.0038103
708.00	0.0022713
708.90	0.0021879
709.70	0.0016956
710.60	0.0026331
711.40	0.00050251
712.30	0.0023635
713.10	0.0019828
714.00	0.00086844
714.80	0.00080365
715.70	0.0027399
716.50	0.0025069
717.40	0.00028283
718.20	0.0011366
719.10	0.0015043
719.90	0.0016898
