Wavelength 9nm)	16, (E)-Ep-PxB-4, EEPPXB4, F
205.00	0.69347
206.00	0.76412
207.00	0.81654
208.00	0.86896
209.00	0.90594
210.00	0.94292
211.00	0.96489
212.00	0.98686
213.00	0.99343
214.00	1.00000
215.00	0.99351
216.00	0.98702
217.00	0.96930
218.00	0.95159
219.00	0.92445
220.00	0.89731
221.00	0.86492
222.00	0.83253
223.00	0.79814
224.00	0.76376
225.00	0.73430
226.00	0.70484
227.00	0.68254
228.00	0.66024
229.00	0.64532
230.00	0.63040
231.00	0.62138
232.00	0.61236
233.00	0.60834
234.00	0.60431
235.00	0.60391
236.00	0.60351
237.00	0.60635
238.00	0.60920
239.00	0.61432
240.00	0.61945
241.00	0.62629
242.00	0.63313
243.00	0.63952
244.00	0.64592
245.00	0.65011
246.00	0.65430
247.00	0.65463
248.00	0.65497
249.00	0.65078
250.00	0.64660
251.00	0.63845
252.00	0.63030
253.00	0.62015
254.00	0.61000
255.00	0.59890
256.00	0.58780
257.00	0.57874
258.00	0.56967
259.00	0.56305
260.00	0.55642
261.00	0.55342
262.00	0.55042
263.00	0.55074
264.00	0.55107
265.00	0.55411
266.00	0.55715
267.00	0.56171
268.00	0.56627
269.00	0.57154
270.00	0.57681
271.00	0.58196
272.00	0.58711
273.00	0.59182
274.00	0.59653
275.00	0.60087
276.00	0.60521
277.00	0.60831
278.00	0.61140
279.00	0.61434
280.00	0.61728
281.00	0.61990
282.00	0.62251
283.00	0.62508
284.00	0.62766
285.00	0.63108
286.00	0.63450
287.00	0.63833
288.00	0.64217
289.00	0.64751
290.00	0.65285
291.00	0.65948
292.00	0.66611
293.00	0.67411
294.00	0.68210
295.00	0.69105
296.00	0.69999
297.00	0.70983
298.00	0.71966
299.00	0.73063
300.00	0.74160
301.00	0.75256
302.00	0.76352
303.00	0.77473
304.00	0.78594
305.00	0.79600
306.00	0.80605
307.00	0.81444
308.00	0.82282
309.00	0.82905
310.00	0.83528
311.00	0.83812
312.00	0.84097
313.00	0.84020
314.00	0.83943
315.00	0.83429
316.00	0.82914
317.00	0.81989
318.00	0.81063
319.00	0.79672
320.00	0.78280
321.00	0.76466
322.00	0.74651
323.00	0.72492
324.00	0.70333
325.00	0.67776
326.00	0.65219
327.00	0.62374
328.00	0.59529
329.00	0.56601
330.00	0.53674
331.00	0.50590
332.00	0.47507
333.00	0.44503
334.00	0.41499
335.00	0.38736
336.00	0.35973
337.00	0.33560
338.00	0.31148
339.00	0.29155
340.00	0.27161
341.00	0.25534
342.00	0.23906
343.00	0.22666
344.00	0.21427
345.00	0.20546
346.00	0.19666
347.00	0.19062
348.00	0.18458
349.00	0.18116
350.00	0.17774
351.00	0.17580
352.00	0.17385
353.00	0.17312
354.00	0.17238
355.00	0.17276
356.00	0.17314
357.00	0.17452
358.00	0.17590
359.00	0.17807
360.00	0.18024
361.00	0.18261
362.00	0.18497
363.00	0.18820
364.00	0.19142
365.00	0.19501
366.00	0.19860
367.00	0.20258
368.00	0.20656
369.00	0.21059
370.00	0.21461
371.00	0.21974
372.00	0.22487
373.00	0.22998
374.00	0.23509
375.00	0.24079
376.00	0.24648
377.00	0.25234
378.00	0.25821
379.00	0.26446
380.00	0.27071
381.00	0.27703
382.00	0.28335
383.00	0.29041
384.00	0.29746
385.00	0.30449
386.00	0.31151
387.00	0.31882
388.00	0.32614
389.00	0.33371
390.00	0.34128
391.00	0.34946
392.00	0.35764
393.00	0.36554
394.00	0.37344
395.00	0.38199
396.00	0.39054
397.00	0.39897
398.00	0.40740
399.00	0.41568
400.00	0.42395
401.00	0.43223
402.00	0.44051
403.00	0.44940
404.00	0.45828
405.00	0.46668
406.00	0.47508
407.00	0.48340
408.00	0.49173
409.00	0.50020
410.00	0.50867
411.00	0.51688
412.00	0.52509
413.00	0.53302
414.00	0.54095
415.00	0.54859
416.00	0.55622
417.00	0.56375
418.00	0.57128
419.00	0.57862
420.00	0.58596
421.00	0.59216
422.00	0.59835
423.00	0.60379
424.00	0.60923
425.00	0.61458
426.00	0.61992
427.00	0.62454
428.00	0.62915
429.00	0.63271
430.00	0.63628
431.00	0.63880
432.00	0.64132
433.00	0.64309
434.00	0.64486
435.00	0.64563
436.00	0.64639
437.00	0.64591
438.00	0.64543
439.00	0.64380
440.00	0.64218
441.00	0.63960
442.00	0.63703
443.00	0.63322
444.00	0.62941
445.00	0.62463
446.00	0.61986
447.00	0.61366
448.00	0.60746
449.00	0.60013
450.00	0.59279
451.00	0.58427
452.00	0.57575
453.00	0.56564
454.00	0.55553
455.00	0.54433
456.00	0.53313
457.00	0.52068
458.00	0.50824
459.00	0.49614
460.00	0.48404
461.00	0.47046
462.00	0.45687
463.00	0.44179
464.00	0.42670
465.00	0.41303
466.00	0.39935
467.00	0.38594
468.00	0.37253
469.00	0.35835
470.00	0.34418
471.00	0.32789
472.00	0.31161
473.00	0.29695
474.00	0.28228
475.00	0.26879
476.00	0.25531
477.00	0.24267
478.00	0.23004
479.00	0.21741
480.00	0.20477
481.00	0.19336
482.00	0.18195
483.00	0.16708
484.00	0.15221
485.00	0.14462
486.00	0.13703
487.00	0.13077
488.00	0.12452
489.00	0.11686
490.00	0.10919
491.00	0.10164
492.00	0.094081
493.00	0.086704
494.00	0.079326
495.00	0.073721
496.00	0.068116
497.00	0.062897
498.00	0.057679
499.00	0.053217
500.00	0.048755
501.00	0.045025
502.00	0.041295
503.00	0.038271
504.00	0.035247
505.00	0.032707
506.00	0.030167
507.00	0.027816
508.00	0.025466
509.00	0.023600
510.00	0.021734
511.00	0.020129
512.00	0.018524
513.00	0.017176
514.00	0.015828
515.00	0.014810
516.00	0.013793
517.00	0.012729
518.00	0.011665
519.00	0.011164
520.00	0.010664
521.00	0.0099736
522.00	0.0092833
523.00	0.0087385
524.00	0.0081937
525.00	0.0077863
526.00	0.0073788
527.00	0.0068375
528.00	0.0062962
529.00	0.0061728
530.00	0.0060495
531.00	0.0055768
532.00	0.0051042
533.00	0.0047806
534.00	0.0044570
535.00	0.0043220
536.00	0.0041869
537.00	0.0040286
538.00	0.0038703
539.00	0.0036189
540.00	0.0033674
541.00	0.0032708
542.00	0.0031742
543.00	0.0031474
544.00	0.0031206
545.00	0.0029251
546.00	0.0027295
547.00	0.0026958
548.00	0.0026620
549.00	0.0027202
550.00	0.0027784
