Wavelength (nm)	"91, M 1995_1323, 5 CH2Cl2"
200.00	
201.00	
202.00	
203.00	
204.00	
205.00	
206.00	
207.00	
208.00	
209.00	
210.00	
211.00	
212.00	
213.00	
214.00	
215.00	
216.00	
217.00	
218.00	
219.00	
220.00	
221.00	
222.00	
223.00	
224.00	
225.00	
226.00	
227.00	
228.00	
229.00	
230.00	
231.00	
232.00	
233.00	
234.00	
235.00	
236.00	
237.00	
238.00	
239.00	
240.00	
241.00	
242.00	
243.00	
244.00	
245.00	
246.00	
247.00	
248.00	
249.00	
250.00	
251.00	
252.00	
253.00	
254.00	
255.00	
256.00	
257.00	
258.00	
259.00	
260.00	
261.00	
262.00	
263.00	
264.00	
265.00	
266.00	
267.00	
268.00	
269.00	
270.00	
271.00	
272.00	
273.00	
274.00	
275.00	
276.00	
277.00	
278.00	
279.00	
280.00	
281.00	
282.00	
283.00	
284.00	
285.00	
286.00	
287.00	
288.00	
289.00	
290.00	
291.00	
292.00	
293.00	
294.00	
295.00	
296.00	
297.00	
298.00	
299.00	
300.00	0.27399
301.00	0.27823
302.00	0.28246
303.00	0.28669
304.00	0.29122
305.00	0.29603
306.00	0.30085
307.00	0.30566
308.00	0.31048
309.00	0.31529
310.00	0.32174
311.00	0.33065
312.00	0.33956
313.00	0.34846
314.00	0.35737
315.00	0.36627
316.00	0.37518
317.00	0.38821
318.00	0.40128
319.00	0.41436
320.00	0.42743
321.00	0.44050
322.00	0.45416
323.00	0.46841
324.00	0.48266
325.00	0.49690
326.00	0.51115
327.00	0.52577
328.00	0.54042
329.00	0.55507
330.00	0.56972
331.00	0.58437
332.00	0.59910
333.00	0.61442
334.00	0.62973
335.00	0.64505
336.00	0.66036
337.00	0.67568
338.00	0.69100
339.00	0.70703
340.00	0.72404
341.00	0.74106
342.00	0.75808
343.00	0.77509
344.00	0.79211
345.00	0.80913
346.00	0.82455
347.00	0.83932
348.00	0.85409
349.00	0.86886
350.00	0.88363
351.00	0.89790
352.00	0.91172
353.00	0.92554
354.00	0.93936
355.00	0.94878
356.00	0.95749
357.00	0.96621
358.00	0.97220
359.00	0.97738
360.00	0.98257
361.00	0.98737
362.00	0.99004
363.00	0.99272
364.00	0.99524
365.00	0.99643
366.00	0.99762
367.00	0.99881
368.00	1.0000
369.00	0.99897
370.00	0.99795
371.00	0.99692
372.00	0.99589
373.00	0.99440
374.00	0.99152
375.00	0.98865
376.00	0.98577
377.00	0.98170
378.00	0.97458
379.00	0.96745
380.00	0.96032
381.00	0.95306
382.00	0.94258
383.00	0.93210
384.00	0.92162
385.00	0.91114
386.00	0.90066
387.00	0.88832
388.00	0.87560
389.00	0.86287
390.00	0.85015
391.00	0.83742
392.00	0.82470
393.00	0.81068
394.00	0.79485
395.00	0.77903
396.00	0.76321
397.00	0.74739
398.00	0.73157
399.00	0.71575
400.00	0.70016
401.00	0.68670
402.00	0.67324
403.00	0.65978
404.00	0.64632
405.00	0.63286
406.00	0.61940
407.00	0.60594
408.00	0.59247
409.00	0.58361
410.00	0.57549
411.00	0.56738
412.00	0.55926
413.00	0.55114
414.00	0.54303
415.00	0.53491
416.00	0.52679
417.00	0.51923
418.00	0.51201
419.00	0.50479
420.00	0.49757
421.00	0.49035
422.00	0.48313
423.00	0.47591
424.00	0.46869
425.00	0.46147
426.00	0.45425
427.00	0.44703
428.00	0.43981
429.00	0.43332
430.00	0.42786
431.00	0.42240
432.00	0.41693
433.00	0.41147
434.00	0.40600
435.00	0.40054
436.00	0.39507
437.00	0.38961
438.00	0.38414
439.00	0.37868
440.00	0.37321
441.00	0.36775
442.00	0.36228
443.00	0.35722
444.00	0.35234
445.00	0.34745
446.00	0.34257
447.00	0.33769
448.00	0.33281
449.00	0.32792
450.00	0.32304
451.00	0.31816
452.00	0.31327
453.00	0.30839
454.00	0.30351
455.00	0.29862
456.00	0.29374
457.00	0.28957
458.00	0.28577
459.00	0.28197
460.00	0.27817
461.00	0.27436
462.00	0.27056
463.00	0.26676
464.00	0.26296
465.00	0.25916
466.00	0.25535
467.00	0.25155
468.00	0.24775
469.00	0.24395
470.00	0.24015
471.00	0.23694
472.00	0.23378
473.00	0.23062
474.00	0.22746
475.00	0.22430
476.00	0.22114
477.00	0.21798
478.00	0.21482
479.00	0.21166
480.00	0.20850
481.00	0.20534
482.00	0.20218
483.00	0.19902
484.00	0.19614
485.00	0.19353
486.00	0.19092
487.00	0.18831
488.00	0.18571
489.00	0.18310
490.00	0.18049
491.00	0.17788
492.00	0.17527
493.00	0.17266
494.00	0.17006
495.00	0.16745
496.00	0.16484
497.00	0.16342
498.00	0.16201
499.00	0.16059
500.00	0.15918
501.00	0.15776
502.00	0.15635
503.00	0.15493
504.00	0.15352
505.00	0.15210
506.00	0.15068
507.00	0.14989
508.00	0.14947
509.00	0.14905
510.00	0.14863
511.00	0.14821
512.00	0.14778
513.00	0.14736
514.00	0.14694
515.00	0.14652
516.00	0.14610
517.00	0.14568
518.00	0.14526
519.00	0.14494
520.00	0.14463
521.00	0.14432
522.00	0.14400
523.00	0.14369
524.00	0.14337
525.00	0.14306
526.00	0.14274
527.00	0.14243
528.00	0.14212
529.00	0.14222
530.00	0.14253
531.00	0.14285
532.00	0.14316
533.00	0.14347
534.00	0.14379
535.00	0.14410
536.00	0.14442
537.00	0.14473
538.00	0.14505
539.00	0.14559
540.00	0.14671
541.00	0.14782
542.00	0.14894
543.00	0.15005
544.00	0.15117
545.00	0.15228
546.00	0.15340
547.00	0.15398
548.00	0.15454
549.00	0.15510
550.00	0.15566
551.00	0.15622
552.00	0.15686
553.00	0.15783
554.00	0.15880
555.00	0.15977
556.00	0.16074
557.00	0.16171
558.00	0.16269
559.00	0.16408
560.00	0.16598
561.00	0.16788
562.00	0.16978
563.00	0.17168
564.00	0.17358
565.00	0.17548
566.00	0.17737
567.00	0.17927
568.00	0.18117
569.00	0.18341
570.00	0.18646
571.00	0.18951
572.00	0.19257
573.00	0.19562
574.00	0.19868
575.00	0.20239
576.00	0.20613
577.00	0.20988
578.00	0.21363
579.00	0.21737
580.00	0.22275
581.00	0.22837
582.00	0.23398
583.00	0.23960
584.00	0.24522
585.00	0.25022
586.00	0.25506
587.00	0.25990
588.00	0.26473
589.00	0.26957
590.00	0.27337
591.00	0.27590
592.00	0.27843
593.00	0.28097
594.00	0.28350
595.00	0.28543
596.00	0.28700
597.00	0.28857
598.00	0.29014
599.00	0.29224
600.00	0.29561
601.00	0.29897
602.00	0.30234
603.00	0.30571
604.00	0.30908
605.00	0.31245
606.00	0.31564
607.00	0.31860
608.00	0.32155
609.00	0.32451
610.00	0.32746
611.00	0.33042
612.00	0.33337
613.00	0.33633
614.00	0.33928
615.00	0.34224
616.00	0.34555
617.00	0.34897
618.00	0.35238
619.00	0.35580
620.00	0.35922
621.00	0.36263
622.00	0.36605
623.00	0.36947
624.00	0.37288
625.00	0.37579
626.00	0.37839
627.00	0.38098
628.00	0.38358
629.00	0.38618
630.00	0.38877
631.00	0.39137
632.00	0.39397
633.00	0.39656
634.00	0.39857
635.00	0.40035
636.00	0.40214
637.00	0.40392
638.00	0.40570
639.00	0.40748
640.00	0.40834
641.00	0.40864
642.00	0.40893
643.00	0.40923
644.00	0.40952
645.00	0.40930
646.00	0.40909
647.00	0.40887
648.00	0.40866
649.00	0.40844
650.00	0.40822
651.00	0.40690
652.00	0.40511
653.00	0.40332
654.00	0.40152
655.00	0.39973
656.00	0.39794
657.00	0.39546
658.00	0.39260
659.00	0.38974
660.00	0.38689
661.00	0.38403
662.00	0.38013
663.00	0.37475
664.00	0.36936
665.00	0.36398
666.00	0.35859
667.00	0.35321
668.00	0.34729
669.00	0.34038
670.00	0.33346
671.00	0.32655
672.00	0.31963
673.00	0.31272
674.00	0.30580
675.00	0.29941
676.00	0.29360
677.00	0.28779
678.00	0.28198
679.00	0.27617
680.00	0.27035
681.00	0.26454
682.00	0.25873
683.00	0.25346
684.00	0.24837
685.00	0.24328
686.00	0.23819
687.00	0.23309
688.00	0.22800
689.00	0.22291
690.00	0.21782
691.00	0.21273
692.00	0.20853
693.00	0.20439
694.00	0.20025
695.00	0.19612
696.00	0.19198
697.00	0.18784
698.00	0.18370
699.00	0.17956
700.00	0.17590
701.00	0.17293
702.00	0.16997
703.00	0.16701
704.00	0.16405
705.00	0.16109
706.00	0.15813
707.00	0.15516
708.00	0.15220
709.00	0.14924
710.00	0.14670
711.00	0.14430
712.00	0.14190
713.00	0.13950
714.00	0.13710
715.00	0.13470
716.00	0.13230
717.00	0.12990
718.00	0.12749
719.00	0.12509
720.00	0.12261
721.00	0.12007
722.00	0.11753
723.00	0.11499
724.00	0.11245
725.00	0.10991
726.00	0.10736
727.00	0.10482
728.00	0.10228
729.00	0.099988
730.00	0.097962
731.00	0.095937
732.00	0.093911
733.00	0.091886
734.00	0.089860
735.00	0.087835
736.00	0.085809
737.00	0.083784
738.00	0.081758
739.00	0.079733
740.00	0.077870
741.00	0.076064
742.00	0.074258
743.00	0.072451
744.00	0.070645
745.00	0.068839
746.00	0.067033
747.00	0.065227
748.00	0.063421
749.00	0.061615
750.00	0.059809
751.00	0.058118
752.00	0.056567
753.00	0.055016
754.00	0.053465
755.00	0.051914
756.00	0.050363
757.00	0.048812
758.00	0.047261
759.00	0.045710
760.00	0.044159
761.00	0.043064
762.00	0.042077
763.00	0.041089
764.00	0.040102
765.00	0.039115
766.00	0.038127
767.00	0.037140
768.00	0.036152
769.00	0.035553
770.00	0.035271
771.00	0.034989
772.00	0.034707
773.00	0.034425
774.00	0.034143
775.00	0.033861
776.00	0.033578
777.00	0.033296
778.00	0.033014
779.00	0.033225
780.00	0.033485
781.00	0.033745
782.00	0.034004
783.00	0.034264
784.00	0.034524
785.00	0.034783
786.00	0.035043
787.00	0.035303
788.00	0.035563
789.00	0.035925
790.00	0.036419
791.00	0.036913
792.00	0.037406
793.00	0.037900
794.00	0.038394
795.00	0.038887
796.00	0.039381
797.00	0.039964
798.00	0.040951
799.00	0.041939
800.00	0.042926
801.00	0.043913
802.00	0.044901
803.00	0.045888
804.00	0.046876
805.00	0.047863
806.00	0.049938
807.00	0.052109
808.00	0.054279
809.00	0.056449
810.00	0.058619
811.00	0.060789
812.00	0.062980
813.00	0.065859
814.00	0.068739
815.00	0.071618
816.00	0.074497
817.00	0.077376
818.00	0.080255
819.00	0.083537
820.00	0.087375
821.00	0.091212
822.00	0.095050
823.00	0.098888
824.00	0.10252
825.00	0.10592
826.00	0.10932
827.00	0.11272
828.00	0.11598
829.00	0.11714
830.00	0.11830
831.00	0.11947
832.00	0.12063
833.00	0.12186
834.00	0.12321
835.00	0.12455
836.00	0.12590
837.00	0.12724
838.00	0.12859
839.00	0.12958
840.00	0.12984
841.00	0.13009
842.00	0.13035
843.00	0.13060
844.00	0.13086
845.00	0.13086
846.00	0.13086
847.00	0.13086
848.00	0.13086
849.00	0.13086
850.00	0.13086
851.00	0.13022
852.00	0.12936
853.00	0.12850
854.00	0.12764
855.00	0.12678
856.00	0.12593
857.00	0.12485
858.00	0.12347
859.00	0.12209
860.00	0.12071
861.00	0.11932
862.00	0.11794
863.00	0.11656
864.00	0.11497
865.00	0.11319
866.00	0.11142
867.00	0.10964
868.00	0.10786
869.00	0.10609
870.00	0.10431
871.00	0.10265
872.00	0.10107
873.00	0.099482
874.00	0.097896
875.00	0.096310
876.00	0.094724
877.00	0.093137
878.00	0.091551
879.00	0.089450
880.00	0.087311
881.00	0.085172
882.00	0.083032
883.00	0.080893
884.00	0.078754
885.00	0.076614
886.00	0.074475
887.00	0.072446
888.00	0.070471
889.00	0.068496
890.00	0.066521
891.00	0.064547
892.00	0.062572
893.00	0.060597
894.00	0.058622
895.00	0.056509
896.00	0.054197
897.00	0.051886
898.00	0.049574
899.00	0.047262
900.00	0.044950
901.00	0.042638
902.00	0.040327
903.00	0.038015
904.00	0.035772
905.00	0.033576
906.00	0.031381
907.00	0.029185
908.00	0.026990
909.00	0.024795
910.00	0.022599
911.00	0.020534
912.00	0.019153
913.00	0.017772
914.00	0.016391
915.00	0.015010
916.00	0.013629
917.00	0.012248
918.00	0.010980
919.00	0.010018
920.00	0.0090560
921.00	0.0080939
922.00	0.0071318
923.00	0.0061697
924.00	0.0052076
925.00	0.0042455
926.00	
927.00	
928.00	
929.00	
930.00	
931.00	
932.00	
933.00	
934.00	
935.00	
936.00	
937.00	
938.00	
939.00	
940.00	
941.00	
942.00	
943.00	
944.00	
945.00	
946.00	
947.00	
948.00	
949.00	
950.00	
951.00	
952.00	
953.00	
954.00	
955.00	
956.00	
957.00	
958.00	
959.00	
960.00	
961.00	
962.00	
963.00	
964.00	
965.00	
966.00	
967.00	
968.00	
969.00	
970.00	
971.00	
972.00	
973.00	
974.00	
975.00	
976.00	
977.00	
978.00	
979.00	
980.00	
981.00	
982.00	
983.00	
984.00	
985.00	
986.00	
987.00	
988.00	
989.00	
990.00	
991.00	
992.00	
993.00	
994.00	
995.00	
996.00	
997.00	
998.00	
999.00	
1000.0	
1001.0	
1002.0	
1003.0	
1004.0	
1005.0	
1006.0	
1007.0	
1008.0	
1009.0	
1010.0	
1011.0	
1012.0	
1013.0	
1014.0	
1015.0	
1016.0	
1017.0	
1018.0	
1019.0	
1020.0	
1021.0	
1022.0	
1023.0	
1024.0	
1025.0	
1026.0	
1027.0	
1028.0	
1029.0	
1030.0	
1031.0	
1032.0	
1033.0	
1034.0	
1035.0	
1036.0	
1037.0	
1038.0	
1039.0	
1040.0	
1041.0	
1042.0	
1043.0	
1044.0	
1045.0	
1046.0	
1047.0	
1048.0	
1049.0	
1050.0	
1051.0	
1052.0	
1053.0	
1054.0	
1055.0	
1056.0	
1057.0	
1058.0	
1059.0	
1060.0	
1061.0	
1062.0	
1063.0	
1064.0	
1065.0	
1066.0	
1067.0	
1068.0	
1069.0	
1070.0	
1071.0	
1072.0	
1073.0	
1074.0	
1075.0	
1076.0	
1077.0	
1078.0	
1079.0	
1080.0	
1081.0	
1082.0	
1083.0	
1084.0	
1085.0	
1086.0	
1087.0	
1088.0	
1089.0	
1090.0	
1091.0	
1092.0	
1093.0	
1094.0	
1095.0	
1096.0	
1097.0	
1098.0	
1099.0	
1100.0	
1101.0	
1102.0	
1103.0	
1104.0	
1105.0	
1106.0	
1107.0	
1108.0	
1109.0	
1110.0	
1111.0	
1112.0	
1113.0	
1114.0	
1115.0	
1116.0	
1117.0	
1118.0	
1119.0	
1120.0	
1121.0	
1122.0	
1123.0	
1124.0	
1125.0	
1126.0	
1127.0	
1128.0	
1129.0	
1130.0	
1131.0	
1132.0	
1133.0	
1134.0	
1135.0	
1136.0	
1137.0	
1138.0	
1139.0	
1140.0	
1141.0	
1142.0	
1143.0	
1144.0	
1145.0	
1146.0	
1147.0	
1148.0	
1149.0	
1150.0	
1151.0	
1152.0	
1153.0	
1154.0	
1155.0	
1156.0	
1157.0	
1158.0	
1159.0	
1160.0	
1161.0	
1162.0	
1163.0	
1164.0	
1165.0	
1166.0	
1167.0	
1168.0	
1169.0	
1170.0	
1171.0	
1172.0	
1173.0	
1174.0	
1175.0	
1176.0	
1177.0	
1178.0	
1179.0	
1180.0	
1181.0	
1182.0	
1183.0	
1184.0	
1185.0	
1186.0	
1187.0	
1188.0	
1189.0	
1190.0	
1191.0	
1192.0	
1193.0	
1194.0	
1195.0	
1196.0	
1197.0	
1198.0	
1199.0	
1200.0	
