Wavelength (nm)	N10 abs e
220.00	19487
220.25	19502
220.50	19692
220.75	19436
221.00	19680
221.25	19590
221.50	19531
221.75	19595
222.00	19666
222.25	19571
222.50	19770
222.75	19571
223.00	19628
223.25	19705
223.50	19779
223.75	19671
224.00	19693
224.25	19667
224.50	19832
224.75	19897
225.00	19801
225.25	19808
225.50	19889
225.75	19772
226.00	19745
226.25	19905
226.50	19973
226.75	19985
227.00	19970
227.25	20045
227.50	20245
227.75	19946
228.00	20199
228.25	20213
228.50	20206
228.75	20232
229.00	20258
229.25	20207
229.50	20430
229.75	20323
230.00	20377
230.25	20527
230.50	20569
230.75	20678
231.00	20777
231.25	20740
231.50	20844
231.75	20686
232.00	20806
232.25	20978
232.50	20971
232.75	21139
233.00	21042
233.25	21071
233.50	21267
233.75	21255
234.00	21323
234.25	21505
234.50	21624
234.75	21584
235.00	21730
235.25	21739
235.50	21943
235.75	22094
236.00	22324
236.25	22584
236.50	22700
236.75	22950
237.00	23164
237.25	23554
237.50	23632
237.75	23888
238.00	24185
238.25	24436
238.50	24855
238.75	25134
239.00	25457
239.25	25865
239.50	26272
239.75	26640
240.00	27004
240.25	27285
240.50	27557
240.75	28159
241.00	28386
241.25	28652
241.50	29046
241.75	29415
242.00	29677
242.25	29819
242.50	30317
242.75	30466
243.00	30885
243.25	30986
243.50	31131
243.75	31393
244.00	31568
244.25	31657
244.50	31632
244.75	31965
245.00	31915
245.25	31954
245.50	31761
245.75	31851
246.00	31895
246.25	31796
246.50	31596
246.75	31188
247.00	31168
247.25	30787
247.50	30405
247.75	30058
248.00	29714
248.25	29165
248.50	28513
248.75	28057
249.00	27406
249.25	26703
249.50	26202
249.75	25459
250.00	24821
250.25	23990
250.50	23258
250.75	22598
251.00	21934
251.25	21045
251.50	20456
251.75	19759
252.00	19020
252.25	18449
252.50	17752
252.75	17152
253.00	16701
253.25	16305
253.50	15765
253.75	15425
254.00	14920
254.25	14597
254.50	14187
254.75	13874
255.00	13635
255.25	13402
255.50	13137
255.75	12914
256.00	12601
256.25	12498
256.50	12095
256.75	12001
257.00	11833
257.25	11695
257.50	11362
257.75	11348
258.00	11306
258.25	11084
258.50	10957
258.75	10995
259.00	10976
259.25	10940
259.50	10972
259.75	10864
260.00	10928
260.25	10890
260.50	11057
260.75	11089
261.00	11010
261.25	11144
261.50	11065
261.75	11165
262.00	11166
262.25	11115
262.50	11249
262.75	11190
263.00	11394
263.25	11430
263.50	11565
263.75	11600
264.00	11600
264.25	11610
264.50	11549
264.75	11905
265.00	11780
265.25	11861
265.50	11862
265.75	11928
266.00	11852
266.25	11920
266.50	11842
266.75	11857
267.00	11837
267.25	11813
267.50	11720
267.75	11613
268.00	11581
268.25	11444
268.50	11375
268.75	11329
269.00	11272
269.25	11179
269.50	11096
269.75	10909
270.00	10833
270.25	10685
270.50	10638
270.75	10566
271.00	10481
271.25	10397
271.50	10097
271.75	9931.1
272.00	9980.9
272.25	9812.4
272.50	9721.4
272.75	9642.7
273.00	9383.3
273.25	9383.9
273.50	9220.1
273.75	9135.6
274.00	9022.2
274.25	8916.7
274.50	8739.1
274.75	8686.1
275.00	8528.8
275.25	8336.8
275.50	8399.1
275.75	8196.6
276.00	8152.7
276.25	8252.3
276.50	8043.9
276.75	7908.9
277.00	7823.1
277.25	7826.4
277.50	7842.8
277.75	7644.9
278.00	7578.7
278.25	7486.3
278.50	7572.1
278.75	7452.9
279.00	7395.9
279.25	7542.0
279.50	7405.0
279.75	7599.7
280.00	7464.7
280.25	7446.3
280.50	7329.0
280.75	7361.8
281.00	7480.4
281.25	7510.5
281.50	7396.5
281.75	7416.8
282.00	7437.8
282.25	7376.9
282.50	7452.2
282.75	7407.0
283.00	7398.5
283.25	7401.1
283.50	7469.3
283.75	7430.6
284.00	7467.9
284.25	7541.3
284.50	7405.7
284.75	7410.3
285.00	7387.4
285.25	7434.5
285.50	7507.9
285.75	7681.6
286.00	7620.6
286.25	7599.7
286.50	7758.2
286.75	7777.9
287.00	7771.3
287.25	7720.2
287.50	7690.7
287.75	7739.2
288.00	7671.1
288.25	7867.0
288.50	7959.4
288.75	7809.3
289.00	7987.6
289.25	7857.8
289.50	7939.1
289.75	8138.9
290.00	8095.0
290.25	8076.7
290.50	8245.7
290.75	8087.8
291.00	8022.9
291.25	8144.2
291.50	8251.0
291.75	8140.9
292.00	8132.4
292.25	8169.7
292.50	8220.2
292.75	8314.5
293.00	8357.8
293.25	8337.5
293.50	8289.0
293.75	8304.1
294.00	8335.5
294.25	8173.0
294.50	8348.6
294.75	8304.7
295.00	8068.2
295.25	8074.7
295.50	8123.2
295.75	8185.5
296.00	8095.0
296.25	8136.3
296.50	8097.0
296.75	8059.0
297.00	8000.0
297.25	7981.7
297.50	7933.2
297.75	7738.6
298.00	7701.2
298.25	7560.3
298.50	7538.7
298.75	7440.4
299.00	7295.0
299.25	7353.3
299.50	7106.9
299.75	6973.2
300.00	6896.6
300.25	6880.8
300.50	6764.9
300.75	6662.0
301.00	6460.2
301.25	6415.6
301.50	6158.1
301.75	6104.4
302.00	5910.4
302.25	5963.5
302.50	5796.4
302.75	5621.4
303.00	5607.0
303.25	5390.8
303.50	5297.1
303.75	5318.7
304.00	5114.9
304.25	5089.4
304.50	4888.2
304.75	4962.9
305.00	4745.4
305.25	4644.5
305.50	4568.4
305.75	4424.3
306.00	4310.3
306.25	4258.5
306.50	4267.7
306.75	4295.9
307.00	3995.7
307.25	3932.8
307.50	3876.5
307.75	3788.7
308.00	3885.7
308.25	3644.5
308.50	3565.9
308.75	3556.1
309.00	3456.5
309.25	3382.4
309.50	3377.2
309.75	3362.8
310.00	3451.2
310.25	3180.6
310.50	3667.5
310.75	3147.8
311.00	3997.1
311.25	3398.8
311.50	3092.2
311.75	3041.7
312.00	3329.4
312.25	2402.2
312.50	2805.1
312.75	2940.1
313.00	2882.5
313.25	3365.4
313.50	3128.2
313.75	3383.7
314.00	3099.4
314.25	2905.4
314.50	2805.1
314.75	2827.4
315.00	2921.8
315.25	3056.1
315.50	3069.9
315.75	2687.2
316.00	2714.7
316.25	2579.1
316.50	2625.0
316.75	2748.8
317.00	2741.6
317.25	2847.7
317.50	2771.7
317.75	2005.1
318.00	3212.7
318.25	2765.2
318.50	2518.1
318.75	2649.2
319.00	2769.1
319.25	3140.0
319.50	3096.1
319.75	2786.1
320.00	2800.6
320.25	2391.0
320.50	2469.7
320.75	2841.8
321.00	2581.1
321.25	2769.8
321.50	2630.9
321.75	2790.1
322.00	2746.8
322.25	3093.5
322.50	2404.8
322.75	2869.4
323.00	2301.3
323.25	3226.5
323.50	3390.3
323.75	3151.1
324.00	3158.3
324.25	3258.6
324.50	3409.9
324.75	3515.4
325.00	3614.4
325.25	3966.3
325.50	3483.3
325.75	3791.3
326.00	3491.2
326.25	3568.5
326.50	3517.4
326.75	3809.0
327.00	4261.8
327.25	4484.6
327.50	4586.8
327.75	4117.6
328.00	4447.9
328.25	4847.6
328.50	5112.3
328.75	5128.7
329.00	5019.9
329.25	4787.3
329.50	5498.2
329.75	5208.0
330.00	5409.1
330.25	5483.2
330.50	5767.6
330.75	5913.0
331.00	5766.9
331.25	5731.5
331.50	5742.7
331.75	6196.1
332.00	6230.8
332.25	6590.6
332.50	6179.7
332.75	5815.4
333.00	6010.0
333.25	5565.7
333.50	6095.8
333.75	6131.2
334.00	5863.2
334.25	5573.6
334.50	5514.6
334.75	5251.9
335.00	5277.4
335.25	5253.2
335.50	5162.8
335.75	5311.5
336.00	4986.5
336.25	5141.8
336.50	4573.0
336.75	4256.5
337.00	4692.9
337.25	4415.8
337.50	4355.5
337.75	4153.7
338.00	3966.3
338.25	3490.5
338.50	3850.3
338.75	3859.5
339.00	3364.1
339.25	3533.1
339.50	3370.6
339.75	2876.6
340.00	3186.5
340.25	3282.8
340.50	2957.8
340.75	2700.3
341.00	2786.1
341.25	2283.6
341.50	2510.9
341.75	2415.9
342.00	2296.7
342.25	2217.4
342.50	1938.2
342.75	1914.0
343.00	2091.6
343.25	1931.0
343.50	1786.2
343.75	1672.2
344.00	1634.9
344.25	1391.8
344.50	1237.1
344.75	1185.4
345.00	1525.4
345.25	1099.5
345.50	946.84
345.75	1338.0
346.00	969.78
346.25	965.19
346.50	1302.6
346.75	808.59
347.00	855.11
347.25	752.23
347.50	935.70
347.75	680.81
348.00	739.78
348.25	883.94
348.50	516.34
348.75	783.69
349.00	407.57
349.25	348.60
349.50	746.34
349.75	406.26
350.00	659.84
350.25	513.72
350.50	378.08
350.75	127.77
351.00	228.68
351.25	458.02
351.50	316.49
351.75	83.873
352.00	243.10
352.25	451.47
352.50	112.05
352.75	336.80
353.00	298.80
353.25	-20.313
353.50	48.489
353.75	170.37
354.00	76.665
354.25	74.044
354.50	-60.939
354.75	47.834
355.00	155.30
355.25	66.836
355.50	259.48
355.75	141.93
356.00	80.793
356.25	129.09
356.50	104.84
356.75	307.97
357.00	62.249
357.25	264.72
357.50	143.89
357.75	76.665
358.00	76.665
358.25	-27.521
358.50	149.73
358.75	72.733
359.00	46.523
359.25	5.8318
359.50	189.50
359.75	259.48
360.00	81.907
360.25	243.10
360.50	21.623
360.75	67.884
361.00	189.37
361.25	-62.905
361.50	8.5183
361.75	165.78
362.00	222.79
362.25	-82.562
362.50	119.26
362.75	74.699
363.00	401.67
363.25	87.149
363.50	512.41
363.75	69.457
364.00	115.98
364.25	34.073
364.50	5.8973
364.75	-55.041
365.00	63.560
365.25	342.70
365.50	344.66
365.75	170.37
366.00	129.74
366.25	-38.660
366.50	-87.149
366.75	138.26
367.00	95.012
367.25	53.731
367.50	193.30
367.75	49.144
368.00	345.97
368.25	247.03
368.50	37.350
368.75	186.09
369.00	94.357
369.25	129.09
369.50	549.10
369.75	134.33
370.00	275.86
370.25	429.19
370.50	232.62
370.75	62.905
371.00	548.45
371.25	216.23
371.50	433.12
371.75	322.39
372.00	206.41
372.25	176.92
372.50	247.69
372.75	360.39
373.00	152.02
373.25	627.73
373.50	329.59
373.75	505.20
374.00	357.77
374.25	211.65
374.50	171.02
374.75	427.23
375.00	328.94
375.25	520.27
375.50	643.46
375.75	454.75
376.00	605.46
376.25	593.01
376.50	437.06
376.75	503.89
377.00	540.59
377.25	368.25
377.50	499.96
377.75	540.59
378.00	409.53
378.25	253.58
378.50	492.10
378.75	591.04
379.00	596.28
379.25	402.98
379.50	806.62
379.75	602.84
380.00	581.87
380.25	503.24
380.50	526.83
380.75	792.20
381.00	640.84
381.25	543.86
381.50	639.53
381.75	665.74
382.00	699.16
382.25	509.13
382.50	509.13
382.75	462.61
383.00	519.62
383.25	613.97
383.50	608.08
383.75	430.50
384.00	617.91
384.25	841.35
384.50	363.67
384.75	679.50
385.00	435.74
385.25	489.48
385.50	768.61
385.75	484.23
386.00	686.71
386.25	691.29
386.50	642.15
386.75	551.07
387.00	611.35
387.25	563.52
387.50	724.71
387.75	788.93
388.00	713.57
388.25	608.08
388.50	596.28
388.75	509.13
389.00	529.45
389.25	418.71
389.50	651.98
389.75	333.53
390.00	516.34
390.25	608.73
390.50	271.93
390.75	545.83
391.00	427.88
391.25	741.09
391.50	448.19
391.75	307.31
392.00	404.95
392.25	332.21
392.50	434.43
392.75	545.83
393.00	278.48
393.25	537.31
393.50	474.40
393.75	325.01
394.00	539.93
394.25	549.76
394.50	374.81
394.75	460.64
395.00	381.36
395.25	305.35
395.50	494.72
395.75	497.34
396.00	578.59
396.25	389.88
396.50	398.40
396.75	260.79
397.00	393.09
397.25	422.64
397.50	391.19
397.75	195.92
398.00	467.85
398.25	416.09
398.50	555.66
398.75	515.69
399.00	359.08
399.25	311.25
399.50	357.11
399.75	321.73
400.00	363.01
400.25	447.54
400.50	239.17
400.75	482.92
401.00	287.66
401.25	400.36
401.50	313.21
401.75	292.90
402.00	235.24
402.25	287.00
402.50	411.50
402.75	298.80
403.00	365.63
403.25	321.73
403.50	357.11
403.75	216.89
404.00	222.79
404.25	99.599
404.50	340.08
404.75	351.22
405.00	277.83
405.25	350.56
405.50	401.02
405.75	345.32
406.00	363.67
406.25	353.84
406.50	322.39
406.75	195.27
407.00	269.97
407.25	288.97
407.50	416.09
407.75	224.10
408.00	302.73
408.25	367.60
408.50	322.39
408.75	175.61
409.00	85.183
409.25	262.76
409.50	333.53
409.75	191.99
410.00	534.69
410.25	376.77
410.50	174.30
410.75	363.67
411.00	295.52
411.25	461.96
411.50	361.05
411.75	218.86
412.00	247.69
412.25	383.98
412.50	312.56
412.75	268.00
413.00	255.55
413.25	328.94
413.50	254.89
413.75	313.87
414.00	262.10
414.25	315.18
414.50	354.49
414.75	209.68
415.00	274.55
415.25	260.14
415.50	318.45
415.75	390.53
416.00	306.00
416.25	395.12
416.50	334.84
416.75	383.98
417.00	317.80
417.25	304.04
417.50	378.08
417.75	369.56
418.00	365.63
418.25	310.59
418.50	326.97
418.75	280.45
419.00	342.70
419.25	348.60
419.50	406.26
419.75	334.18
420.00	455.40
420.25	439.02
420.50	279.79
420.75	210.99
421.00	455.40
421.25	370.87
421.50	345.32
421.75	510.44
422.00	505.86
422.25	310.59
422.50	389.22
422.75	323.04
423.00	397.74
423.25	496.03
423.50	482.92
423.75	541.24
424.00	612.66
424.25	653.29
424.50	684.09
424.75	555.66
425.00	538.62
425.25	699.81
425.50	568.11
425.75	457.37
426.00	547.79
426.25	557.62
426.50	653.94
426.75	752.89
427.00	733.23
427.25	653.94
427.50	523.55
427.75	889.18
428.00	837.42
428.25	856.42
428.50	696.54
428.75	847.25
429.00	782.37
429.25	876.73
429.50	933.74
429.75	1023.5
430.00	954.05
430.25	1028.1
430.50	1077.2
430.75	1027.4
431.00	1102.8
431.25	1122.5
431.50	953.40
431.75	1231.2
432.00	1169.6
432.25	1140.8
432.50	1390.5
432.75	1390.5
433.00	1328.9
433.25	1341.3
433.50	1266.6
433.75	1269.2
434.00	1542.5
434.25	1526.1
434.50	1625.0
434.75	1557.5
435.00	1484.8
435.25	1759.4
435.50	1675.5
435.75	1786.9
436.00	1851.1
436.25	1895.7
436.50	1860.9
436.75	1991.3
437.00	1963.8
437.25	2164.3
437.50	2129.6
437.75	2287.5
438.00	2207.6
438.25	2231.8
438.50	2298.0
438.75	2113.9
439.00	2312.4
439.25	2371.4
439.50	2364.2
439.75	2491.3
440.00	2589.6
440.25	2588.9
440.50	2581.7
440.75	2777.6
441.00	2704.2
441.25	2572.5
441.50	2955.9
441.75	2824.2
442.00	3088.9
442.25	2956.5
442.50	3237.6
442.75	3111.8
443.00	3170.8
443.25	3227.1
443.50	3320.2
443.75	3266.4
444.00	3636.7
444.25	3451.9
444.50	3383.1
444.75	3621.6
445.00	3481.4
445.25	3628.1
445.50	3680.6
445.75	3596.7
446.00	3811.6
446.25	3912.5
446.50	4021.3
446.75	4053.4
447.00	4096.7
447.25	3984.6
447.50	4046.2
447.75	4226.4
448.00	4283.4
448.25	4274.2
448.50	4334.5
448.75	4480.0
449.00	4434.8
449.25	4627.4
449.50	4525.2
449.75	4743.4
450.00	4745.4
450.25	4957.0
450.50	4820.1
450.75	4973.4
451.00	5008.8
451.25	5116.2
451.50	5102.5
451.75	5068.4
452.00	5491.7
452.25	5387.5
452.50	5443.9
452.75	5599.2
453.00	5532.3
453.25	5622.7
453.50	5747.9
453.75	5851.4
454.00	5842.3
454.25	5903.2
454.50	6122.7
454.75	5982.5
455.00	6266.2
455.25	6287.2
455.50	6271.4
455.75	6432.6
456.00	6572.9
456.25	6610.9
456.50	6734.7
456.75	6926.0
457.00	6971.9
457.25	7105.6
457.50	7230.1
457.75	7171.8
458.00	7379.5
458.25	7472.5
458.50	7772.0
458.75	7804.7
459.00	8131.7
459.25	8185.5
459.50	8357.1
459.75	8431.2
460.00	8555.0
460.25	8783.0
460.50	8897.1
460.75	9030.7
461.00	9117.9
461.25	9359.7
461.50	9535.9
461.75	9788.9
462.00	9874.0
462.25	10152
462.50	10497
462.75	10430
463.00	10673
463.25	11077
463.50	11061
463.75	11272
464.00	11604
464.25	11733
464.50	11937
464.75	12215
465.00	12352
465.25	12593
465.50	12801
465.75	13000
466.00	13248
466.25	13484
466.50	13720
466.75	13936
467.00	14255
467.25	14397
467.50	14651
467.75	14796
468.00	15056
468.25	15469
468.50	15673
468.75	15874
469.00	16045
469.25	16326
469.50	16685
469.75	16843
470.00	17056
470.25	17336
470.50	17529
470.75	17923
471.00	17986
471.25	18594
471.50	18584
471.75	18892
472.00	19206
472.25	19318
472.50	19620
472.75	19913
473.00	20196
473.25	20430
473.50	20436
473.75	20868
474.00	21027
474.25	21171
474.50	21489
474.75	21601
475.00	21947
475.25	22066
475.50	22522
475.75	22502
476.00	22863
476.25	23040
476.50	23250
476.75	23323
477.00	23590
477.25	23862
477.50	23769
477.75	24117
478.00	24026
478.25	24329
478.50	24474
478.75	24725
479.00	24758
479.25	24910
479.50	25047
479.75	25143
480.00	25252
480.25	25493
480.50	25755
480.75	25777
481.00	25870
481.25	26063
481.50	26062
481.75	26219
482.00	26217
482.25	26521
482.50	26480
482.75	26789
483.00	26776
483.25	26876
483.50	27137
483.75	27139
484.00	27360
484.25	27510
484.50	27826
484.75	27987
485.00	27749
485.25	28235
485.50	28247
485.75	28479
486.00	28631
486.25	28761
486.50	28897
486.75	29180
487.00	29564
487.25	29497
487.50	29870
487.75	30135
488.00	30386
488.25	30598
488.50	30949
488.75	31287
489.00	31408
489.25	31748
489.50	32024
489.75	32295
490.00	32621
490.25	32974
490.50	33385
490.75	33643
491.00	34099
491.25	34527
491.50	34897
491.75	35419
492.00	35655
492.25	36292
492.50	36591
492.75	37191
493.00	37697
493.25	38246
493.50	38911
493.75	39161
494.00	39779
494.25	40371
494.50	41053
494.75	41284
495.00	41651
495.25	42081
495.50	42797
495.75	43436
496.00	44034
496.25	44743
496.50	45431
496.75	46229
497.00	46847
497.25	47674
497.50	48279
497.75	48840
498.00	49694
498.25	50247
498.50	51205
498.75	52029
499.00	53133
499.25	53806
499.50	54581
499.75	55492
500.00	56288
500.25	56953
500.50	57779
500.75	59016
501.00	59646
501.25	60479
501.50	61460
501.75	62090
502.00	63146
502.25	64170
502.50	65106
502.75	65792
503.00	66666
503.25	67696
503.50	68362
503.75	69240
504.00	69919
504.25	70705
504.50	71754
504.75	72570
505.00	73394
505.25	74033
505.50	75002
505.75	75636
506.00	76244
506.25	77145
506.50	77645
506.75	78313
507.00	79100
507.25	79639
507.50	80323
507.75	80722
508.00	81636
508.25	81865
508.50	82529
508.75	82785
509.00	83447
509.25	83588
509.50	84164
509.75	84229
510.00	84705
510.25	84871
510.50	85165
510.75	85333
511.00	85441
511.25	85688
511.50	85659
511.75	85700
512.00	85688
512.25	85584
512.50	85591
512.75	85348
513.00	84895
513.25	84698
513.50	84525
513.75	84132
514.00	83436
514.25	83326
514.50	82736
514.75	82252
515.00	81329
515.25	80625
515.50	79680
515.75	78912
516.00	77904
516.25	76911
516.50	76246
516.75	75212
517.00	74230
517.25	73392
517.50	72288
517.75	71434
518.00	70323
518.25	69154
518.50	67995
518.75	66976
519.00	65988
519.25	64575
519.50	63660
519.75	62279
520.00	61212
520.25	59730
520.50	58687
520.75	57472
521.00	56207
521.25	54968
521.50	53920
521.75	52536
522.00	51453
522.25	50136
522.50	49015
522.75	47684
523.00	46452
523.25	45106
523.50	44295
523.75	42897
524.00	41761
524.25	40720
524.50	39414
524.75	38469
525.00	37093
525.25	36214
525.50	34968
525.75	33963
526.00	32963
526.25	31859
526.50	31067
526.75	29708
527.00	28925
527.25	27916
527.50	26965
527.75	25968
528.00	25297
528.25	24381
528.50	23376
528.75	22732
529.00	21865
529.25	21078
529.50	20148
529.75	19462
530.00	18836
530.25	17911
530.50	17473
530.75	16680
531.00	15959
531.25	15385
531.50	14875
531.75	14248
532.00	13756
532.25	13290
532.50	12645
532.75	12129
533.00	11651
533.25	11244
533.50	10637
533.75	10107
534.00	10037
534.25	9465.8
534.50	9296.1
534.75	8927.9
535.00	8620.5
535.25	8224.8
535.50	7857.2
535.75	7738.6
536.00	7252.4
536.25	6942.4
536.50	6648.9
536.75	6257.0
537.00	6059.1
537.25	5839.0
537.50	5516.6
537.75	5120.2
538.00	5126.7
538.25	4856.8
538.50	4677.2
538.75	4438.7
539.00	4180.5
539.25	4213.3
539.50	3760.5
539.75	3609.1
540.00	3456.5
540.25	3235.7
540.50	3256.0
540.75	3056.1
541.00	2754.0
541.25	2704.2
541.50	2571.2
541.75	2465.1
542.00	2317.6
542.25	2422.5
542.50	2124.3
542.75	2119.1
543.00	1983.5
543.25	1906.1
543.50	1711.5
543.75	1872.7
544.00	1515.0
544.25	1560.2
544.50	1510.4
544.75	1378.0
545.00	1269.2
545.25	1350.5
545.50	1072.0
545.75	1090.3
546.00	1011.1
546.25	1170.9
546.50	1044.5
546.75	1061.5
547.00	789.58
547.25	760.10
547.50	984.85
547.75	826.93
548.00	822.35
548.25	727.33
548.50	629.05
548.75	773.86
549.00	665.74
549.25	408.88
549.50	720.78
549.75	426.57
550.00	468.51
550.25	584.49
550.50	353.84
550.75	533.38
551.00	502.58
551.25	493.41
551.50	467.85
551.75	277.17
552.00	520.27
552.25	353.18
552.50	433.12
552.75	221.48
553.00	467.85
553.25	265.38
553.50	225.41
553.75	320.42
554.00	247.69
554.25	312.56
554.50	310.59
554.75	157.92
555.00	96.323
555.25	286.35
555.50	313.21
555.75	171.68
556.00	337.46
556.25	172.33
556.50	178.88
556.75	166.43
557.00	148.09
557.25	39.315
557.50	119.26
557.75	89.115
558.00	310.59
558.25	171.02
558.50	75.354
558.75	211.65
559.00	315.83
559.25	12.450
559.50	319.11
559.75	76.010
560.00	165.12
560.25	262.10
560.50	85.183
560.75	207.06
561.00	180.20
561.25	213.61
561.50	161.85
561.75	254.89
562.00	12.450
562.25	347.29
562.50	129.74
562.75	52.420
563.00	182.82
563.25	83.873
563.50	152.02
563.75	62.905
564.00	89.770
564.25	244.41
564.50	132.36
564.75	301.42
565.00	81.252
565.25	35.384
565.50	91.080
565.75	330.90
566.00	149.40
566.25	191.99
566.50	156.61
566.75	182.82
567.00	344.66
567.25	87.804
567.50	99.599
567.75	307.31
568.00	-47.834
568.25	173.64
568.50	64.870
568.75	250.96
569.00	153.99
569.25	108.77
569.50	195.27
569.75	104.19
570.00	11.795
570.25	36.039
570.50	-10.484
570.75	144.81
571.00	262.76
571.25	178.23
571.50	83.217
571.75	94.357
572.00	188.06
572.25	157.92
572.50	76.665
572.75	275.21
573.00	146.78
573.25	113.36
573.50	34.073
573.75	152.67
574.00	104.19
574.25	102.22
574.50	164.47
574.75	239.17
575.00	188.06
575.25	207.72
575.50	224.75
575.75	128.43
576.00	271.28
576.25	121.88
576.50	131.71
576.75	-15.726
577.00	133.67
577.25	148.09
577.50	209.03
577.75	346.63
578.00	229.34
578.25	152.67
578.50	160.54
578.75	152.67
579.00	285.04
579.25	135.64
579.50	312.56
579.75	279.14
580.00	36.694
580.25	138.91
580.50	153.99
580.75	170.37
581.00	-21.623
581.25	267.34
581.50	41.936
581.75	158.57
582.00	293.55
582.25	213.61
582.50	144.81
582.75	198.54
583.00	269.97
583.25	102.22
583.50	150.05
583.75	248.34
584.00	221.48
584.25	360.39
584.50	150.71
584.75	115.32
585.00	221.48
