Wavelength (nm)	"102, CC 2009_2496, PCB"
200.00	
201.00	
202.00	
203.00	
204.00	
205.00	
206.00	
207.00	
208.00	
209.00	
210.00	
211.00	
212.00	
213.00	
214.00	
215.00	
216.00	
217.00	
218.00	
219.00	
220.00	
221.00	
222.00	
223.00	
224.00	
225.00	
226.00	
227.00	
228.00	
229.00	
230.00	
231.00	
232.00	
233.00	
234.00	
235.00	
236.00	
237.00	
238.00	
239.00	
240.00	
241.00	
242.00	
243.00	
244.00	
245.00	
246.00	
247.00	
248.00	
249.00	
250.00	0.87296
251.00	0.86596
252.00	0.86110
253.00	0.85734
254.00	0.85595
255.00	0.85558
256.00	0.85696
257.00	0.85834
258.00	0.86296
259.00	0.86758
260.00	0.87140
261.00	0.87496
262.00	0.87852
263.00	0.88209
264.00	0.88567
265.00	0.89009
266.00	0.89451
267.00	0.89894
268.00	0.90336
269.00	0.90721
270.00	0.91094
271.00	0.91467
272.00	0.91698
273.00	0.91842
274.00	0.91985
275.00	0.91785
276.00	0.91569
277.00	0.91314
278.00	0.90862
279.00	0.90410
280.00	0.89817
281.00	0.89095
282.00	0.88372
283.00	0.87433
284.00	0.86413
285.00	0.85394
286.00	0.84375
287.00	0.83268
288.00	0.82030
289.00	0.80792
290.00	0.79555
291.00	0.78409
292.00	0.77434
293.00	0.76458
294.00	0.75483
295.00	0.74508
296.00	0.73897
297.00	0.73335
298.00	0.72773
299.00	0.72211
300.00	0.71736
301.00	0.71381
302.00	0.71026
303.00	0.70749
304.00	0.70619
305.00	0.70559
306.00	0.70705
307.00	0.70852
308.00	0.70998
309.00	0.71335
310.00	0.71693
311.00	0.72051
312.00	0.72580
313.00	0.73248
314.00	0.73917
315.00	0.74585
316.00	0.75254
317.00	0.75997
318.00	0.76779
319.00	0.77560
320.00	0.78342
321.00	0.79129
322.00	0.79993
323.00	0.80857
324.00	0.81722
325.00	0.82586
326.00	0.83450
327.00	0.84259
328.00	0.85062
329.00	0.85864
330.00	0.86667
331.00	0.87469
332.00	0.88189
333.00	0.88878
334.00	0.89567
335.00	0.90256
336.00	0.90945
337.00	0.91634
338.00	0.92229
339.00	0.92787
340.00	0.93345
341.00	0.93903
342.00	0.94461
343.00	0.95019
344.00	0.95466
345.00	0.95896
346.00	0.96326
347.00	0.96755
348.00	0.97185
349.00	0.97570
350.00	0.97839
351.00	0.98109
352.00	0.98379
353.00	0.98649
354.00	0.98919
355.00	0.99133
356.00	0.99335
357.00	0.99538
358.00	0.99733
359.00	0.99822
360.00	0.99911
361.00	1.0000
362.00	0.99854
363.00	0.99708
364.00	0.99563
365.00	0.99135
366.00	0.98548
367.00	0.97807
368.00	0.96845
369.00	0.95883
370.00	0.94558
371.00	0.93113
372.00	0.91667
373.00	0.90222
374.00	0.88545
375.00	0.86864
376.00	0.85183
377.00	0.83462
378.00	0.81668
379.00	0.79875
380.00	0.78081
381.00	0.76309
382.00	0.74584
383.00	0.72860
384.00	0.71136
385.00	0.69555
386.00	0.67979
387.00	0.66404
388.00	0.64903
389.00	0.63721
390.00	0.62539
391.00	0.61357
392.00	0.60175
393.00	0.59149
394.00	0.58235
395.00	0.57321
396.00	0.56407
397.00	0.55493
398.00	0.54579
399.00	0.53709
400.00	0.52894
401.00	0.52080
402.00	0.51266
403.00	0.50451
404.00	0.49637
405.00	0.48840
406.00	0.48144
407.00	0.47447
408.00	0.46750
409.00	0.46053
410.00	0.45356
411.00	0.44659
412.00	0.43962
413.00	0.43265
414.00	0.42583
415.00	0.42072
416.00	0.41561
417.00	0.41049
418.00	0.40538
419.00	0.40027
420.00	0.39516
421.00	0.39004
422.00	0.38493
423.00	0.37842
424.00	0.37188
425.00	0.36533
426.00	0.35879
427.00	0.35225
428.00	0.34570
429.00	0.33916
430.00	0.33262
431.00	0.32607
432.00	0.31969
433.00	0.31542
434.00	0.31115
435.00	0.30688
436.00	0.30261
437.00	0.29834
438.00	0.29407
439.00	0.28980
440.00	0.28553
441.00	0.28126
442.00	0.27699
443.00	0.27272
444.00	0.26845
445.00	0.26418
446.00	0.25991
447.00	0.25605
448.00	0.25329
449.00	0.25053
450.00	0.24777
451.00	0.24502
452.00	0.24226
453.00	0.23950
454.00	0.23675
455.00	0.23399
456.00	0.23123
457.00	0.22847
458.00	0.22572
459.00	0.22350
460.00	0.22205
461.00	0.22060
462.00	0.21915
463.00	0.21770
464.00	0.21626
465.00	0.21481
466.00	0.21336
467.00	0.21191
468.00	0.21047
469.00	0.20929
470.00	0.20828
471.00	0.20727
472.00	0.20625
473.00	0.20524
474.00	0.20423
475.00	0.20321
476.00	0.20229
477.00	0.20222
478.00	0.20215
479.00	0.20207
480.00	0.20200
481.00	0.20193
482.00	0.20186
483.00	0.20178
484.00	0.20194
485.00	0.20229
486.00	0.20263
487.00	0.20297
488.00	0.20331
489.00	0.20366
490.00	0.20400
491.00	0.20434
492.00	0.20495
493.00	0.20573
494.00	0.20651
495.00	0.20729
496.00	0.20807
497.00	0.20885
498.00	0.20963
499.00	0.21042
500.00	0.21120
501.00	0.21198
502.00	0.21297
503.00	0.21400
504.00	0.21504
505.00	0.21607
506.00	0.21711
507.00	0.21814
508.00	0.21918
509.00	0.22055
510.00	0.22193
511.00	0.22331
512.00	0.22469
513.00	0.22607
514.00	0.22744
515.00	0.22882
516.00	0.23045
517.00	0.23213
518.00	0.23380
519.00	0.23547
520.00	0.23714
521.00	0.23881
522.00	0.24048
523.00	0.24216
524.00	0.24393
525.00	0.24571
526.00	0.24748
527.00	0.24925
528.00	0.25103
529.00	0.25280
530.00	0.25458
531.00	0.25635
532.00	0.25812
533.00	0.25990
534.00	0.26184
535.00	0.26416
536.00	0.26648
537.00	0.26880
538.00	0.27112
539.00	0.27344
540.00	0.27575
541.00	0.27807
542.00	0.28039
543.00	0.28271
544.00	0.28492
545.00	0.28707
546.00	0.28922
547.00	0.29136
548.00	0.29351
549.00	0.29566
550.00	0.29781
551.00	0.29996
552.00	0.30210
553.00	0.30425
554.00	0.30640
555.00	0.30855
556.00	0.31068
557.00	0.31275
558.00	0.31483
559.00	0.31690
560.00	0.31898
561.00	0.32105
562.00	0.32313
563.00	0.32520
564.00	0.32728
565.00	0.32936
566.00	0.33143
567.00	0.33353
568.00	0.33570
569.00	0.33788
570.00	0.34006
571.00	0.34224
572.00	0.34441
573.00	0.34659
574.00	0.34877
575.00	0.35095
576.00	0.35267
577.00	0.35420
578.00	0.35573
579.00	0.35726
580.00	0.35879
581.00	0.36032
582.00	0.36185
583.00	0.36338
584.00	0.36491
585.00	0.36644
586.00	0.36781
587.00	0.36891
588.00	0.37001
589.00	0.37111
590.00	0.37221
591.00	0.37331
592.00	0.37441
593.00	0.37512
594.00	0.37580
595.00	0.37648
596.00	0.37716
597.00	0.37783
598.00	0.37851
599.00	0.37901
600.00	0.37935
601.00	0.37968
602.00	0.38002
603.00	0.38035
604.00	0.38069
605.00	0.38102
606.00	0.38061
607.00	0.38021
608.00	0.37980
609.00	0.37940
610.00	0.37899
611.00	0.37859
612.00	0.37805
613.00	0.37714
614.00	0.37623
615.00	0.37533
616.00	0.37442
617.00	0.37351
618.00	0.37260
619.00	0.37169
620.00	0.37078
621.00	0.36978
622.00	0.36877
623.00	0.36775
624.00	0.36674
625.00	0.36573
626.00	0.36471
627.00	0.36370
628.00	0.36222
629.00	0.35988
630.00	0.35754
631.00	0.35520
632.00	0.35286
633.00	0.35051
634.00	0.34817
635.00	0.34583
636.00	0.34326
637.00	0.34056
638.00	0.33787
639.00	0.33518
640.00	0.33249
641.00	0.32980
642.00	0.32672
643.00	0.32354
644.00	0.32036
645.00	0.31718
646.00	0.31400
647.00	0.31082
648.00	0.30765
649.00	0.30447
650.00	0.30117
651.00	0.29778
652.00	0.29439
653.00	0.29100
654.00	0.28761
655.00	0.28422
656.00	0.28083
657.00	0.27744
658.00	0.27405
659.00	0.27066
660.00	0.26728
661.00	0.26476
662.00	0.26227
663.00	0.25979
664.00	0.25730
665.00	0.25482
666.00	0.25234
667.00	0.24985
668.00	0.24737
669.00	0.24489
670.00	0.24240
671.00	0.23970
672.00	0.23615
673.00	0.23261
674.00	0.22906
675.00	0.22552
676.00	0.22198
677.00	0.21843
678.00	0.21489
679.00	0.21135
680.00	0.20780
681.00	0.20426
682.00	0.20066
683.00	0.19702
684.00	0.19339
685.00	0.18975
686.00	0.18611
687.00	0.18248
688.00	0.17884
689.00	0.17521
690.00	0.17157
691.00	0.16794
692.00	0.16421
693.00	0.16037
694.00	0.15652
695.00	0.15268
696.00	0.14884
697.00	0.14499
698.00	0.14115
699.00	0.13730
700.00	0.13346
701.00	0.12961
702.00	0.12652
703.00	0.12386
704.00	0.12121
705.00	0.11856
706.00	0.11590
707.00	0.11325
708.00	0.11059
709.00	0.10794
710.00	0.10528
711.00	0.10263
712.00	0.10005
713.00	0.097872
714.00	0.095693
715.00	0.093514
716.00	0.091335
717.00	0.089156
718.00	0.086976
719.00	0.084797
720.00	0.082618
721.00	0.080439
722.00	0.078260
723.00	0.076081
724.00	0.074061
725.00	0.072877
726.00	0.071693
727.00	0.070510
728.00	0.069326
729.00	0.068143
730.00	0.066959
731.00	0.065776
732.00	0.064592
733.00	0.063408
734.00	0.062225
735.00	0.061041
736.00	0.059858
737.00	0.058667
738.00	0.057474
739.00	0.056281
740.00	0.055087
741.00	0.053894
742.00	0.052701
743.00	0.051508
744.00	0.050315
745.00	0.049122
746.00	0.047929
747.00	0.046735
748.00	0.045542
749.00	0.044349
750.00	0.043156
751.00	0.041963
752.00	0.040899
753.00	0.039902
754.00	0.038905
755.00	0.037908
756.00	0.036911
757.00	0.035914
758.00	0.034917
759.00	0.033920
760.00	0.032923
761.00	0.031926
762.00	0.030929
763.00	0.029932
764.00	0.028941
765.00	0.028004
766.00	0.027067
767.00	0.026130
768.00	0.025194
769.00	0.024257
770.00	0.023320
771.00	0.022383
772.00	0.021447
773.00	0.020510
774.00	0.019573
775.00	0.018717
776.00	0.017911
777.00	0.017106
778.00	0.016300
779.00	0.015494
780.00	0.014688
781.00	0.013882
782.00	0.013076
783.00	0.012270
784.00	0.011702
785.00	0.011182
786.00	0.010662
787.00	0.010142
788.00	0.0096226
789.00	0.0091029
790.00	0.0085474
791.00	0.0079615
792.00	0.0073756
793.00	0.0067897
794.00	0.0062038
795.00	0.0056179
796.00	0.0051900
797.00	0.0047687
798.00	0.0043474
799.00	0.0039261
800.00	0.0035048
801.00	
802.00	
803.00	
804.00	
805.00	
806.00	
807.00	
808.00	
809.00	
810.00	
811.00	
812.00	
813.00	
814.00	
815.00	
816.00	
817.00	
818.00	
819.00	
820.00	
821.00	
822.00	
823.00	
824.00	
825.00	
826.00	
827.00	
828.00	
829.00	
830.00	
831.00	
832.00	
833.00	
834.00	
835.00	
836.00	
837.00	
838.00	
839.00	
840.00	
841.00	
842.00	
843.00	
844.00	
845.00	
846.00	
847.00	
848.00	
849.00	
850.00	
851.00	
852.00	
853.00	
854.00	
855.00	
856.00	
857.00	
858.00	
859.00	
860.00	
861.00	
862.00	
863.00	
864.00	
865.00	
866.00	
867.00	
868.00	
869.00	
870.00	
871.00	
872.00	
873.00	
874.00	
875.00	
876.00	
877.00	
878.00	
879.00	
880.00	
881.00	
882.00	
883.00	
884.00	
885.00	
886.00	
887.00	
888.00	
889.00	
890.00	
891.00	
892.00	
893.00	
894.00	
895.00	
896.00	
897.00	
898.00	
899.00	
900.00	
901.00	
902.00	
903.00	
904.00	
905.00	
906.00	
907.00	
908.00	
909.00	
910.00	
911.00	
912.00	
913.00	
914.00	
915.00	
916.00	
917.00	
918.00	
919.00	
920.00	
921.00	
922.00	
923.00	
924.00	
925.00	
926.00	
927.00	
928.00	
929.00	
930.00	
931.00	
932.00	
933.00	
934.00	
935.00	
936.00	
937.00	
938.00	
939.00	
940.00	
941.00	
942.00	
943.00	
944.00	
945.00	
946.00	
947.00	
948.00	
949.00	
950.00	
951.00	
952.00	
953.00	
954.00	
955.00	
956.00	
957.00	
958.00	
959.00	
960.00	
961.00	
962.00	
963.00	
964.00	
965.00	
966.00	
967.00	
968.00	
969.00	
970.00	
971.00	
972.00	
973.00	
974.00	
975.00	
976.00	
977.00	
978.00	
979.00	
980.00	
981.00	
982.00	
983.00	
984.00	
985.00	
986.00	
987.00	
988.00	
989.00	
990.00	
991.00	
992.00	
993.00	
994.00	
995.00	
996.00	
997.00	
998.00	
999.00	
1000.0	
1001.0	
1002.0	
1003.0	
1004.0	
1005.0	
1006.0	
1007.0	
1008.0	
1009.0	
1010.0	
1011.0	
1012.0	
1013.0	
1014.0	
1015.0	
1016.0	
1017.0	
1018.0	
1019.0	
1020.0	
1021.0	
1022.0	
1023.0	
1024.0	
1025.0	
1026.0	
1027.0	
1028.0	
1029.0	
1030.0	
1031.0	
1032.0	
1033.0	
1034.0	
1035.0	
1036.0	
1037.0	
1038.0	
1039.0	
1040.0	
1041.0	
1042.0	
1043.0	
1044.0	
1045.0	
1046.0	
1047.0	
1048.0	
1049.0	
1050.0	
1051.0	
1052.0	
1053.0	
1054.0	
1055.0	
1056.0	
1057.0	
1058.0	
1059.0	
1060.0	
1061.0	
1062.0	
1063.0	
1064.0	
1065.0	
1066.0	
1067.0	
1068.0	
1069.0	
1070.0	
1071.0	
1072.0	
1073.0	
1074.0	
1075.0	
1076.0	
1077.0	
1078.0	
1079.0	
1080.0	
1081.0	
1082.0	
1083.0	
1084.0	
1085.0	
1086.0	
1087.0	
1088.0	
1089.0	
1090.0	
1091.0	
1092.0	
1093.0	
1094.0	
1095.0	
1096.0	
1097.0	
1098.0	
1099.0	
1100.0	
1101.0	
1102.0	
1103.0	
1104.0	
1105.0	
1106.0	
1107.0	
1108.0	
1109.0	
1110.0	
1111.0	
1112.0	
1113.0	
1114.0	
1115.0	
1116.0	
1117.0	
1118.0	
1119.0	
1120.0	
1121.0	
1122.0	
1123.0	
1124.0	
1125.0	
1126.0	
1127.0	
1128.0	
1129.0	
1130.0	
1131.0	
1132.0	
1133.0	
1134.0	
1135.0	
1136.0	
1137.0	
1138.0	
1139.0	
1140.0	
1141.0	
1142.0	
1143.0	
1144.0	
1145.0	
1146.0	
1147.0	
1148.0	
1149.0	
1150.0	
1151.0	
1152.0	
1153.0	
1154.0	
1155.0	
1156.0	
1157.0	
1158.0	
1159.0	
1160.0	
1161.0	
1162.0	
1163.0	
1164.0	
1165.0	
1166.0	
1167.0	
1168.0	
1169.0	
1170.0	
1171.0	
1172.0	
1173.0	
1174.0	
1175.0	
1176.0	
1177.0	
1178.0	
1179.0	
1180.0	
1181.0	
1182.0	
1183.0	
1184.0	
1185.0	
1186.0	
1187.0	
1188.0	
1189.0	
1190.0	
1191.0	
1192.0	
1193.0	
1194.0	
1195.0	
1196.0	
1197.0	
1198.0	
1199.0	
1200.0	
