Wavelength (nm)	F05 abs e
235.00	2410.5
235.25	2334.2
235.50	2265.9
235.75	2204.0
236.00	2160.1
236.25	2117.1
236.50	2068.9
236.75	2028.8
237.00	1993.5
237.25	1962.7
237.50	1938.9
237.75	1920.0
238.00	1896.2
238.25	1881.7
238.50	1853.6
238.75	1831.5
239.00	1821.4
239.25	1809.0
239.50	1794.4
239.75	1773.1
240.00	1768.7
240.25	1753.8
240.50	1751.6
240.75	1747.5
241.00	1744.7
241.25	1751.8
241.50	1750.5
241.75	1742.9
242.00	1746.0
242.25	1746.0
242.50	1753.6
242.75	1742.0
243.00	1747.0
243.25	1759.5
243.50	1763.9
243.75	1774.6
244.00	1790.6
244.25	1789.8
244.50	1805.6
244.75	1817.1
245.00	1824.9
245.25	1832.7
245.50	1842.1
245.75	1865.1
246.00	1872.3
246.25	1893.1
246.50	1914.9
246.75	1936.2
247.00	1953.0
247.25	1971.8
247.50	1990.9
247.75	2008.0
248.00	2036.9
248.25	2055.9
248.50	2080.9
248.75	2095.1
249.00	2118.9
249.25	2151.9
249.50	2174.3
249.75	2208.8
250.00	2240.9
250.25	2261.7
250.50	2282.6
250.75	2320.6
251.00	2351.3
251.25	2379.9
251.50	2415.5
251.75	2444.1
252.00	2478.5
252.25	2513.2
252.50	2557.6
252.75	2589.3
253.00	2626.3
253.25	2663.3
253.50	2707.3
253.75	2745.7
254.00	2781.0
254.25	2815.1
254.50	2849.1
254.75	2861.2
255.00	2890.7
255.25	2925.1
255.50	2969.3
255.75	3004.1
256.00	3066.4
256.25	3114.1
256.50	3154.3
256.75	3181.3
257.00	3224.8
257.25	3287.4
257.50	3315.3
257.75	3354.0
258.00	3415.4
258.25	3447.3
258.50	3498.2
258.75	3529.9
259.00	3579.0
259.25	3628.1
259.50	3681.4
259.75	3722.0
260.00	3765.6
260.25	3808.7
260.50	3865.9
260.75	3913.3
261.00	3957.4
261.25	4003.4
261.50	4036.7
261.75	4090.4
262.00	4142.8
262.25	4205.1
262.50	4232.2
262.75	4286.6
263.00	4315.9
263.25	4369.2
263.50	4400.9
263.75	4438.6
264.00	4492.5
264.25	4518.3
264.50	4565.2
264.75	4618.0
265.00	4650.7
265.25	4690.1
265.50	4712.2
265.75	4743.7
266.00	4781.7
266.25	4825.7
266.50	4847.9
266.75	4896.1
267.00	4921.7
267.25	4932.1
267.50	4971.5
267.75	5009.2
268.00	5022.4
268.25	5059.1
268.50	5077.1
268.75	5104.4
269.00	5121.8
269.25	5171.1
269.50	5177.4
269.75	5213.6
270.00	5238.1
270.25	5256.4
270.50	5276.6
270.75	5287.9
271.00	5298.7
271.25	5321.9
271.50	5309.6
271.75	5342.4
272.00	5360.3
272.25	5332.6
272.50	5350.7
272.75	5346.2
273.00	5344.4
273.25	5333.9
273.50	5323.8
273.75	5340.3
274.00	5357.9
274.25	5337.8
274.50	5351.7
274.75	5373.8
275.00	5379.2
275.25	5414.2
275.50	5433.5
275.75	5457.0
276.00	5461.6
276.25	5492.7
276.50	5506.0
276.75	5506.4
277.00	5570.6
277.25	5552.8
277.50	5569.7
277.75	5554.8
278.00	5579.2
278.25	5567.4
278.50	5561.1
278.75	5571.5
279.00	5566.9
279.25	5573.7
279.50	5562.2
279.75	5563.3
280.00	5502.2
280.25	5518.9
280.50	5469.6
280.75	5459.6
281.00	5431.8
281.25	5391.1
281.50	5318.1
281.75	5254.0
282.00	5208.4
282.25	5158.0
282.50	5075.4
282.75	5009.7
283.00	4979.3
283.25	4880.8
283.50	4807.8
283.75	4750.2
284.00	4703.4
284.25	4653.6
284.50	4601.9
284.75	4573.0
285.00	4544.6
285.25	4523.0
285.50	4509.2
285.75	4514.5
286.00	4523.3
286.25	4558.2
286.50	4579.4
286.75	4581.3
287.00	4594.2
287.25	4615.5
287.50	4627.4
287.75	4599.0
288.00	4584.2
288.25	4514.1
288.50	4457.2
288.75	4390.7
289.00	4289.5
289.25	4170.9
289.50	4046.1
289.75	3903.0
290.00	3771.5
290.25	3601.9
290.50	3477.1
290.75	3308.3
291.00	3159.6
291.25	3021.5
291.50	2878.3
291.75	2746.8
292.00	2610.1
292.25	2482.9
292.50	2359.4
292.75	2244.9
293.00	2130.9
293.25	2026.0
293.50	1926.4
293.75	1837.3
294.00	1748.3
294.25	1663.7
294.50	1614.4
294.75	1580.3
295.00	1532.7
295.25	1449.8
295.50	1384.4
295.75	1314.5
296.00	1237.5
296.25	1179.0
296.50	1114.2
296.75	1054.6
297.00	1001.9
297.25	947.72
297.50	901.38
297.75	860.15
298.00	816.37
298.25	763.23
298.50	723.21
298.75	682.71
299.00	646.14
299.25	606.50
299.50	568.83
299.75	547.73
300.00	507.44
300.25	485.62
300.50	453.71
300.75	438.52
301.00	406.13
301.25	378.99
301.50	360.83
301.75	331.17
302.00	316.60
302.25	295.26
302.50	273.19
302.75	265.74
303.00	248.89
303.25	234.11
303.50	219.81
303.75	197.89
304.00	195.99
304.25	176.93
304.50	166.60
304.75	151.06
305.00	150.41
305.25	140.77
305.50	135.80
305.75	128.34
306.00	113.57
306.25	112.56
306.50	104.00
306.75	96.992
307.00	91.329
307.25	89.741
307.50	76.620
307.75	73.305
308.00	67.263
308.25	70.681
308.50	66.537
308.75	61.324
309.00	63.913
309.25	43.886
309.50	51.586
309.75	72.442
310.00	61.634
310.25	81.661
310.50	70.923
310.75	60.011
311.00	58.389
311.25	45.095
311.50	20.856
311.75	46.994
312.00	26.587
312.25	40.226
312.50	37.878
312.75	40.917
313.00	0.069058
313.25	19.751
313.50	-0.20717
313.75	21.788
314.00	55.661
314.25	16.056
314.50	6.5950
314.75	32.319
315.00	8.9430
315.25	33.631
315.50	6.1116
315.75	3.1767
316.00	8.4941
316.25	9.5645
316.50	13.397
316.75	15.020
317.00	14.951
317.25	15.400
317.50	8.9085
317.75	0.13812
318.00	32.423
318.25	16.919
318.50	14.640
318.75	14.709
319.00	18.231
319.25	45.509
319.50	14.364
319.75	2.6242
320.00	-3.3148
320.25	1.1395
320.50	19.095
320.75	-6.9749
321.00	0.58699
321.25	16.850
321.50	4.3507
321.75	17.921
322.00	-3.2112
322.25	-17.644
322.50	-5.2829
322.75	-1.2085
323.00	3.0386
323.25	11.464
323.50	12.983
323.75	2.0717
324.00	-7.2511
324.25	4.9722
324.50	-6.6986
324.75	17.817
325.00	-19.474
325.25	14.088
325.50	-5.1794
325.75	-11.187
326.00	-1.4157
326.25	5.1448
326.50	21.028
326.75	1.5193
327.00	12.085
327.25	21.753
327.50	12.051
327.75	-14.295
328.00	6.3188
328.25	4.2125
328.50	34.978
328.75	12.154
329.00	9.1847
329.25	6.5605
329.50	-13.466
329.75	-1.0704
330.00	-3.6255
330.25	-1.6229
330.50	-10.704
330.75	2.3825
331.00	-11.291
331.25	20.027
331.50	-5.8354
331.75	4.5578
332.00	-8.8049
332.25	-0.65605
332.50	7.4928
332.75	6.3188
333.00	-5.9735
333.25	10.428
333.50	-10.048
333.75	-2.1753
334.00	12.810
334.25	-7.9071
334.50	13.363
334.75	10.497
335.00	-3.3148
335.25	2.0027
335.50	-1.9336
335.75	16.125
336.00	-6.0771
336.25	-9.3919
336.50	-5.6282
336.75	2.6933
337.00	6.1807
337.25	3.2803
337.50	-6.1462
337.75	7.0439
338.00	6.2843
338.25	-5.5592
338.50	-1.7265
338.75	-10.946
339.00	-4.3161
339.25	-5.8699
339.50	-6.3533
339.75	-9.3228
340.00	3.6601
340.25	4.2125
340.50	-3.6946
340.75	-9.0811
341.00	-3.3838
341.25	3.2112
341.50	-0.17265
341.75	-12.810
342.00	-8.8394
342.25	-15.711
342.50	-2.7623
342.75	6.0426
343.00	2.3825
343.25	-1.8300
343.50	-3.3838
343.75	-2.9004
344.00	-19.820
344.25	4.3852
344.50	11.947
344.75	2.4170
345.00	2.2099
345.25	4.2125
345.50	1.1395
345.75	-2.8314
346.00	-11.843
346.25	0.20717
346.50	2.4861
346.75	-2.1408
347.00	10.635
347.25	-5.3520
347.50	2.9350
347.75	-5.6282
348.00	1.6574
348.25	-0.34529
348.50	-4.1090
348.75	-0.34529
349.00	-6.3879
349.25	-13.743
349.50	-3.1076
349.75	6.1462
350.00	6.5605
