Wavelength (nm)	"188, TL 2022_103_153977, 3a"
200.00	
201.00	
202.00	
203.00	
204.00	
205.00	
206.00	
207.00	
208.00	
209.00	
210.00	
211.00	
212.00	
213.00	
214.00	
215.00	
216.00	
217.00	
218.00	
219.00	
220.00	
221.00	
222.00	
223.00	
224.00	
225.00	
226.00	
227.00	
228.00	
229.00	
230.00	
231.00	
232.00	
233.00	
234.00	
235.00	
236.00	
237.00	
238.00	
239.00	
240.00	
241.00	
242.00	
243.00	
244.00	
245.00	
246.00	
247.00	
248.00	
249.00	
250.00	
251.00	
252.00	
253.00	
254.00	
255.00	
256.00	
257.00	
258.00	
259.00	
260.00	
261.00	
262.00	
263.00	
264.00	
265.00	
266.00	
267.00	
268.00	
269.00	
270.00	
271.00	
272.00	
273.00	
274.00	
275.00	
276.00	
277.00	
278.00	
279.00	
280.00	
281.00	
282.00	
283.00	
284.00	
285.00	
286.00	
287.00	
288.00	
289.00	
290.00	
291.00	
292.00	
293.00	
294.00	
295.00	
296.00	
297.00	
298.00	
299.00	
300.00	0.67093
301.00	0.67100
302.00	0.67089
303.00	0.67061
304.00	0.67033
305.00	0.67005
306.00	0.66977
307.00	0.66988
308.00	0.67047
309.00	0.67107
310.00	0.67166
311.00	0.67225
312.00	0.67284
313.00	0.67398
314.00	0.67579
315.00	0.67761
316.00	0.67942
317.00	0.68124
318.00	0.68305
319.00	0.68607
320.00	0.68911
321.00	0.69216
322.00	0.69520
323.00	0.69824
324.00	0.70385
325.00	0.70986
326.00	0.71588
327.00	0.72190
328.00	0.72756
329.00	0.73301
330.00	0.73845
331.00	0.74389
332.00	0.74933
333.00	0.75497
334.00	0.76176
335.00	0.76856
336.00	0.77535
337.00	0.78214
338.00	0.79064
339.00	0.80048
340.00	0.81031
341.00	0.82015
342.00	0.83065
343.00	0.84147
344.00	0.85229
345.00	0.86311
346.00	0.87426
347.00	0.88560
348.00	0.89695
349.00	0.90830
350.00	0.91977
351.00	0.93134
352.00	0.94292
353.00	0.95335
354.00	0.96284
355.00	0.97234
356.00	0.98132
357.00	0.98812
358.00	0.99493
359.00	0.99697
360.00	0.99849
361.00	1.0000
362.00	0.99778
363.00	0.99555
364.00	0.99300
365.00	0.98620
366.00	0.97940
367.00	0.96851
368.00	0.95648
369.00	0.94445
370.00	0.92934
371.00	0.91217
372.00	0.89501
373.00	0.87765
374.00	0.86000
375.00	0.84234
376.00	0.82900
377.00	0.81695
378.00	0.80489
379.00	0.79284
380.00	0.78140
381.00	0.77004
382.00	0.75814
383.00	0.74608
384.00	0.73434
385.00	0.72332
386.00	0.71231
387.00	0.70194
388.00	0.69230
389.00	0.68267
390.00	0.67303
391.00	0.67001
392.00	0.66741
393.00	0.66481
394.00	0.66049
395.00	0.65477
396.00	0.64319
397.00	0.63801
398.00	0.63728
399.00	0.63655
400.00	0.63582
401.00	0.62320
402.00	0.61491
403.00	0.60870
404.00	0.60692
405.00	0.60574
406.00	0.60457
407.00	0.59735
408.00	0.58932
409.00	0.58330
410.00	0.58017
411.00	0.57705
412.00	0.57488
413.00	0.57588
414.00	0.57688
415.00	0.57472
416.00	0.56790
417.00	0.56155
418.00	0.55541
419.00	0.55316
420.00	0.55090
421.00	0.54962
422.00	0.55179
423.00	0.55396
424.00	0.54664
425.00	0.53860
426.00	0.53056
427.00	0.52656
428.00	0.52286
429.00	0.52244
430.00	0.52395
431.00	0.52546
432.00	0.52436
433.00	0.52264
434.00	0.52258
435.00	0.52587
436.00	0.52916
437.00	0.53245
438.00	0.53615
439.00	0.54037
440.00	0.54459
441.00	0.54881
442.00	0.55301
443.00	0.55720
444.00	0.56140
445.00	0.56561
446.00	0.56995
447.00	0.57430
448.00	0.57865
449.00	0.58300
450.00	0.58841
451.00	0.59409
452.00	0.59977
453.00	0.60545
454.00	0.61155
455.00	0.61798
456.00	0.62441
457.00	0.63092
458.00	0.64016
459.00	0.64940
460.00	0.65541
461.00	0.66023
462.00	0.66505
463.00	0.67230
464.00	0.68923
465.00	0.70222
466.00	0.71269
467.00	0.72001
468.00	0.72677
469.00	0.73352
470.00	0.74028
471.00	0.74801
472.00	0.75577
473.00	0.76998
474.00	0.78648
475.00	0.79566
476.00	0.80485
477.00	0.81403
478.00	0.82320
479.00	0.83116
480.00	0.83852
481.00	0.84588
482.00	0.85618
483.00	0.86954
484.00	0.87242
485.00	0.87413
486.00	0.87584
487.00	0.87246
488.00	0.86907
489.00	0.86524
490.00	0.85550
491.00	0.84576
492.00	0.83141
493.00	0.81689
494.00	0.80420
495.00	0.79150
496.00	0.77881
497.00	0.76516
498.00	0.75102
499.00	0.73688
500.00	0.72274
501.00	0.70777
502.00	0.69028
503.00	0.67279
504.00	0.65530
505.00	0.63715
506.00	0.61779
507.00	0.59844
508.00	0.57929
509.00	0.56030
510.00	0.54132
511.00	0.52213
512.00	0.50204
513.00	0.48194
514.00	0.46185
515.00	0.44078
516.00	0.41952
517.00	0.39825
518.00	0.37999
519.00	0.36233
520.00	0.34468
521.00	0.32984
522.00	0.31561
523.00	0.30163
524.00	0.28876
525.00	0.27590
526.00	0.26553
527.00	0.25624
528.00	0.24694
529.00	0.24061
530.00	0.23468
531.00	0.22876
532.00	0.22410
533.00	0.22055
534.00	0.21701
535.00	0.21347
536.00	0.20993
537.00	0.20710
538.00	0.20432
539.00	0.20154
540.00	0.19876
541.00	0.19627
542.00	0.19434
543.00	0.19241
544.00	0.19048
545.00	0.18855
546.00	0.18821
547.00	0.18798
548.00	0.18776
549.00	0.18657
550.00	0.18505
551.00	0.18353
552.00	0.18201
553.00	0.18049
554.00	0.17964
555.00	0.17920
556.00	0.17875
557.00	0.17830
558.00	0.17786
559.00	0.17710
560.00	0.17630
561.00	0.17549
562.00	0.17469
563.00	0.17389
564.00	0.17140
565.00	0.16764
566.00	0.16389
567.00	0.16358
568.00	0.16450
569.00	0.16541
570.00	0.16632
571.00	0.16722
572.00	0.16811
573.00	0.16900
574.00	0.16989
575.00	0.17061
576.00	0.16961
577.00	0.16860
578.00	0.16760
579.00	0.16660
580.00	0.16529
581.00	0.16228
582.00	0.15927
583.00	0.15626
584.00	0.15310
585.00	0.14985
586.00	0.14661
587.00	0.14336
588.00	0.14124
589.00	0.13923
590.00	0.13723
591.00	0.13522
592.00	0.13281
593.00	0.13020
594.00	0.12759
595.00	0.12543
596.00	0.12603
597.00	0.12664
598.00	0.12724
599.00	0.12571
600.00	0.12281
601.00	0.11991
602.00	0.11680
603.00	0.11339
604.00	0.11057
605.00	0.11130
606.00	0.11203
607.00	0.11275
608.00	0.11270
609.00	0.11029
610.00	0.10788
611.00	0.10547
612.00	0.10467
613.00	0.10448
614.00	0.10430
615.00	0.10412
616.00	0.10426
617.00	0.10446
618.00	0.10466
619.00	0.10509
620.00	0.10603
621.00	0.10698
622.00	0.10715
623.00	0.10559
624.00	0.10403
625.00	0.10312
626.00	0.10656
627.00	0.11000
628.00	0.11117
629.00	0.11117
630.00	0.11117
631.00	0.11147
632.00	0.11376
633.00	0.11604
634.00	0.12051
635.00	0.12614
636.00	0.13571
637.00	0.13687
638.00	0.12903
639.00	0.13129
640.00	0.13355
641.00	0.13467
642.00	0.13216
643.00	0.12966
644.00	0.12911
645.00	0.13137
646.00	0.13363
647.00	0.13747
648.00	0.14240
649.00	0.14495
650.00	0.14166
651.00	0.13837
652.00	0.13508
653.00	0.13222
654.00	0.12995
655.00	0.12769
656.00	0.12550
657.00	0.12336
658.00	0.12122
659.00	0.11996
660.00	0.11876
661.00	0.11755
662.00	0.11624
663.00	0.11476
664.00	0.11329
665.00	0.11181
666.00	0.11025
667.00	0.10868
668.00	0.10712
669.00	0.10664
670.00	0.10632
671.00	0.10600
672.00	0.10568
673.00	0.10621
674.00	0.10775
675.00	0.10907
676.00	0.10924
677.00	0.10940
678.00	0.10956
679.00	0.10972
680.00	0.10704
681.00	0.10342
682.00	0.10390
683.00	0.10442
684.00	0.10494
685.00	0.10546
686.00	0.10562
687.00	0.10575
688.00	0.10587
689.00	0.10600
690.00	0.10612
691.00	0.10664
692.00	0.10817
693.00	0.10970
694.00	0.11123
695.00	0.11167
696.00	0.11129
697.00	0.11092
698.00	0.11054
699.00	0.11016
700.00	0.10979
701.00	0.11076
702.00	0.11186
703.00	0.11295
704.00	0.11406
705.00	0.11575
706.00	0.11744
707.00	0.11914
708.00	0.11993
709.00	0.12031
710.00	0.12069
711.00	0.12106
712.00	0.12144
713.00	0.12182
714.00	0.12242
715.00	0.12301
716.00	0.12361
717.00	0.12420
718.00	0.12514
719.00	0.12706
720.00	0.12898
721.00	0.13090
722.00	0.13285
723.00	0.13495
724.00	0.13704
725.00	0.13914
726.00	0.14154
727.00	0.14581
728.00	0.15008
729.00	0.15448
730.00	0.15916
731.00	0.16266
732.00	0.16141
733.00	0.16015
734.00	0.16011
735.00	0.16212
736.00	0.16413
737.00	0.16658
738.00	0.16939
739.00	0.17221
740.00	0.17499
741.00	0.17645
742.00	0.17791
743.00	0.17936
744.00	0.18112
745.00	0.18489
746.00	0.18865
747.00	0.19260
748.00	0.19695
749.00	0.20105
750.00	0.20414
751.00	0.20722
752.00	0.20821
753.00	0.20894
754.00	0.22232
755.00	0.22593
756.00	0.22825
757.00	0.23058
758.00	0.23031
759.00	0.22785
760.00	0.22491
761.00	0.22049
762.00	0.21680
763.00	0.21390
764.00	0.21100
765.00	0.20912
766.00	0.20959
767.00	0.21006
768.00	0.20904
769.00	0.20453
770.00	0.20002
771.00	0.19644
772.00	0.19390
773.00	0.19136
774.00	0.18873
775.00	0.18545
776.00	0.18306
777.00	0.18471
778.00	0.18635
779.00	0.18754
780.00	0.18659
781.00	0.18565
782.00	0.18487
783.00	0.18487
784.00	0.18487
785.00	0.18487
786.00	0.18628
787.00	0.18849
788.00	0.19070
789.00	0.19267
790.00	0.19267
791.00	0.19267
792.00	0.19267
793.00	0.19043
794.00	0.18802
795.00	0.18561
796.00	0.18321
797.00	0.18084
798.00	0.17847
799.00	0.17610
800.00	0.17474
801.00	0.17432
802.00	0.17390
803.00	0.17365
804.00	0.17432
805.00	0.17499
806.00	0.17566
807.00	0.17633
808.00	0.17604
809.00	0.17568
810.00	0.17531
811.00	0.17501
812.00	0.17614
813.00	0.17726
814.00	0.17839
815.00	0.17952
816.00	0.18065
817.00	0.18147
818.00	0.18181
819.00	0.18214
820.00	0.18248
821.00	0.18259
822.00	0.18152
823.00	0.18045
824.00	0.18212
825.00	0.18641
826.00	0.19036
827.00	0.18579
828.00	0.18122
829.00	0.18146
830.00	0.18547
831.00	0.18892
832.00	0.18666
833.00	0.18441
834.00	0.18248
835.00	0.18144
836.00	0.18040
837.00	0.17936
838.00	0.17832
839.00	0.18047
840.00	0.18581
841.00	0.18263
842.00	0.17861
843.00	0.18040
844.00	0.18574
845.00	0.19154
846.00	0.19778
847.00	0.19444
848.00	0.19016
849.00	0.18682
850.00	0.18615
851.00	0.18548
852.00	0.18514
853.00	0.18849
854.00	0.19185
855.00	0.19520
856.00	0.20232
857.00	0.20434
858.00	0.20066
859.00	0.19710
860.00	0.19374
861.00	0.19151
862.00	0.19251
863.00	0.19505
864.00	0.20314
865.00	0.19965
866.00	0.19616
867.00	0.19496
868.00	0.19523
869.00	0.19549
870.00	0.19165
871.00	0.18763
872.00	0.18225
873.00	0.17545
874.00	0.17787
875.00	0.18388
876.00	0.17666
877.00	0.17146
878.00	0.17548
879.00	0.17599
880.00	0.17416
881.00	0.17233
882.00	0.17051
883.00	0.16622
884.00	0.16099
885.00	0.15779
886.00	0.15740
887.00	0.15702
888.00	0.15664
889.00	0.15310
890.00	0.14827
891.00	0.14930
892.00	0.15063
893.00	0.15197
894.00	0.14918
895.00	0.14517
896.00	0.13893
897.00	0.12830
898.00	0.13031
899.00	0.13232
900.00	0.13027
901.00	0.12541
902.00	0.12054
903.00	0.11745
904.00	0.12000
905.00	0.12049
906.00	0.11597
907.00	0.11145
908.00	0.10706
909.00	0.10282
910.00	0.098590
911.00	0.096481
912.00	0.099575
913.00	0.10267
914.00	0.097240
915.00	0.091811
916.00	0.087239
917.00	0.083460
918.00	0.079680
919.00	0.075259
920.00	0.070245
921.00	0.068843
922.00	0.072860
923.00	0.076876
924.00	0.062690
925.00	0.056062
926.00	0.053259
927.00	0.059280
928.00	0.058795
929.00	0.047170
930.00	0.058028
931.00	0.064966
932.00	0.071317
933.00	0.060374
934.00	0.044073
935.00	0.040081
936.00	0.042962
937.00	0.045369
938.00	0.047775
939.00	0.046848
940.00	0.043405
941.00	0.040031
942.00	0.037281
943.00	0.034531
944.00	0.031780
945.00	0.031952
946.00	0.033099
947.00	0.034245
948.00	0.035405
949.00	0.036908
950.00	0.038410
951.00	0.038858
952.00	0.035340
953.00	0.023405
954.00	0.012828
955.00	0.0090296
956.00	0.0078484
957.00	0.0066673
958.00	0.010991
959.00	0.014129
960.00	0.012653
961.00	0.011176
962.00	0.0099331
963.00	0.011047
964.00	0.012162
965.00	0.013276
966.00	0.010811
967.00	0.0083318
968.00	0.0077746
969.00	0.0072175
970.00	0.0066603
971.00	0.0061032
972.00	0.0055460
973.00	0.0049889
974.00	0.0039600
975.00	0.0028058
976.00	0.0016516
977.00	0.00079753
978.00	0.00079753
979.00	0.00079753
980.00	0.00079753
981.00	0.00079753
982.00	0.00079753
983.00	0.00079753
984.00	0.00090256
985.00	0.0014277
986.00	0.0019528
987.00	0.0024780
988.00	0.0050390
989.00	0.0097191
990.00	0.010250
991.00	0.0037160
992.00	0.011526
993.00	0.017058
994.00	0.010331
995.00	0.0051471
996.00	0.0013449
997.00	0.0015275
998.00	0.0017100
999.00	0.0018925
1000.0	0.0020750
1001.0	
1002.0	
1003.0	
1004.0	
1005.0	
1006.0	
1007.0	
1008.0	
1009.0	
1010.0	
1011.0	
1012.0	
1013.0	
1014.0	
1015.0	
1016.0	
1017.0	
1018.0	
1019.0	
1020.0	
1021.0	
1022.0	
1023.0	
1024.0	
1025.0	
1026.0	
1027.0	
1028.0	
1029.0	
1030.0	
1031.0	
1032.0	
1033.0	
1034.0	
1035.0	
1036.0	
1037.0	
1038.0	
1039.0	
1040.0	
1041.0	
1042.0	
1043.0	
1044.0	
1045.0	
1046.0	
1047.0	
1048.0	
1049.0	
1050.0	
1051.0	
1052.0	
1053.0	
1054.0	
1055.0	
1056.0	
1057.0	
1058.0	
1059.0	
1060.0	
1061.0	
1062.0	
1063.0	
1064.0	
1065.0	
1066.0	
1067.0	
1068.0	
1069.0	
1070.0	
1071.0	
1072.0	
1073.0	
1074.0	
1075.0	
1076.0	
1077.0	
1078.0	
1079.0	
1080.0	
1081.0	
1082.0	
1083.0	
1084.0	
1085.0	
1086.0	
1087.0	
1088.0	
1089.0	
1090.0	
1091.0	
1092.0	
1093.0	
1094.0	
1095.0	
1096.0	
1097.0	
1098.0	
1099.0	
1100.0	
1101.0	
1102.0	
1103.0	
1104.0	
1105.0	
1106.0	
1107.0	
1108.0	
1109.0	
1110.0	
1111.0	
1112.0	
1113.0	
1114.0	
1115.0	
1116.0	
1117.0	
1118.0	
1119.0	
1120.0	
1121.0	
1122.0	
1123.0	
1124.0	
1125.0	
1126.0	
1127.0	
1128.0	
1129.0	
1130.0	
1131.0	
1132.0	
1133.0	
1134.0	
1135.0	
1136.0	
1137.0	
1138.0	
1139.0	
1140.0	
1141.0	
1142.0	
1143.0	
1144.0	
1145.0	
1146.0	
1147.0	
1148.0	
1149.0	
1150.0	
1151.0	
1152.0	
1153.0	
1154.0	
1155.0	
1156.0	
1157.0	
1158.0	
1159.0	
1160.0	
1161.0	
1162.0	
1163.0	
1164.0	
1165.0	
1166.0	
1167.0	
1168.0	
1169.0	
1170.0	
1171.0	
1172.0	
1173.0	
1174.0	
1175.0	
1176.0	
1177.0	
1178.0	
1179.0	
1180.0	
1181.0	
1182.0	
1183.0	
1184.0	
1185.0	
1186.0	
1187.0	
1188.0	
1189.0	
1190.0	
1191.0	
1192.0	
1193.0	
1194.0	
1195.0	
1196.0	
1197.0	
1198.0	
1199.0	
1200.0	
