Wavelength (nm)	P07 abs e
300.00	6810.3
300.50	6560.9
301.00	6336.8
301.50	6080.5
302.00	5888.5
302.50	5726.4
303.00	5563.2
303.50	5437.9
304.00	5311.5
304.50	5181.6
305.00	5108.0
305.50	5062.1
306.00	4992.0
306.50	4955.2
307.00	4924.1
307.50	4882.8
308.00	4863.2
308.50	4878.2
309.00	4893.1
309.50	4842.5
310.00	4827.6
310.50	4834.5
311.00	4857.5
311.50	4864.4
312.00	4871.3
312.50	4910.3
313.00	4906.9
313.50	4965.5
314.00	4973.6
314.50	5005.7
315.00	5028.7
315.50	5090.8
316.00	5106.9
316.50	5196.6
317.00	5204.6
317.50	5256.3
318.00	5334.5
318.50	5387.4
319.00	5414.9
319.50	5457.5
320.00	5517.2
320.50	5577.0
321.00	5654.0
321.50	5709.2
322.00	5744.8
322.50	5793.1
323.00	5869.0
323.50	5935.6
324.00	6025.3
324.50	6072.4
325.00	6097.7
325.50	6208.0
326.00	6252.9
326.50	6342.5
327.00	6385.1
327.50	6464.4
328.00	6528.7
328.50	6597.7
329.00	6705.7
329.50	6764.4
330.00	6812.6
330.50	6893.1
331.00	6944.8
331.50	7012.6
332.00	7096.6
332.50	7156.3
333.00	7217.2
333.50	7290.8
334.00	7350.6
334.50	7428.7
335.00	7464.4
335.50	7511.5
336.00	7580.5
336.50	7602.3
337.00	7690.8
337.50	7727.6
338.00	7777.0
338.50	7818.4
339.00	7855.2
339.50	7870.1
340.00	7909.2
340.50	7967.8
341.00	7941.4
341.50	7995.4
342.00	7988.5
342.50	7990.8
343.00	8021.8
343.50	8049.4
344.00	8066.7
344.50	8078.2
345.00	8023.0
345.50	8100.0
346.00	8101.1
346.50	8110.3
347.00	8074.7
347.50	8101.1
348.00	8108.0
348.50	8083.9
349.00	8105.7
349.50	8133.3
350.00	8112.6
350.50	8106.9
351.00	8134.5
351.50	8070.1
352.00	8095.4
352.50	8013.8
353.00	7983.9
353.50	7931.0
354.00	7897.7
354.50	7910.3
355.00	7864.4
355.50	7780.5
356.00	7743.7
356.50	7674.7
357.00	7626.4
357.50	7543.7
358.00	7435.6
358.50	7369.0
359.00	7311.5
359.50	7194.3
360.00	7119.5
360.50	7047.1
361.00	7020.7
361.50	6883.9
362.00	6801.2
362.50	6720.7
363.00	6629.9
363.50	6534.5
364.00	6426.4
364.50	6354.0
365.00	6249.4
365.50	6136.8
366.00	6040.2
366.50	5963.2
367.00	5877.0
367.50	5772.4
368.00	5694.3
368.50	5623.0
369.00	5578.2
369.50	5466.7
370.00	5398.9
370.50	5309.2
371.00	5259.8
371.50	5208.0
372.00	5151.7
372.50	5097.7
373.00	5026.4
373.50	4972.4
374.00	4896.6
374.50	4865.5
375.00	4803.4
375.50	4741.4
376.00	4669.0
376.50	4618.4
377.00	4566.7
377.50	4502.3
378.00	4424.1
378.50	4379.3
379.00	4312.6
379.50	4239.1
380.00	4185.1
380.50	4096.6
381.00	4028.7
381.50	3960.9
382.00	3888.5
382.50	3780.5
383.00	3711.5
383.50	3623.0
384.00	3554.0
384.50	3464.4
385.00	3382.8
385.50	3309.2
386.00	3223.0
386.50	3131.0
387.00	3052.9
387.50	2966.7
388.00	2877.0
388.50	2802.3
389.00	2720.7
389.50	2627.6
390.00	2552.9
390.50	2478.2
391.00	2409.2
391.50	2333.3
392.00	2263.2
392.50	2200.0
393.00	2132.2
393.50	2080.5
394.00	2027.6
394.50	1966.7
395.00	1918.4
395.50	1864.4
396.00	1833.3
396.50	1783.9
397.00	1748.3
397.50	1718.4
398.00	1693.1
398.50	1659.8
399.00	1647.1
399.50	1614.9
400.00	1612.6
400.50	1595.4
401.00	1589.7
401.50	1593.1
402.00	1575.9
402.50	1585.1
403.00	1583.9
403.50	1600.0
404.00	1604.6
404.50	1623.0
405.00	1637.9
405.50	1663.2
406.00	1674.7
406.50	1703.4
407.00	1735.6
407.50	1757.5
408.00	1793.1
408.50	1835.6
409.00	1859.8
409.50	1901.1
410.00	1944.8
410.50	1983.9
411.00	2028.7
411.50	2079.3
412.00	2123.0
412.50	2172.4
413.00	2224.1
413.50	2257.5
414.00	2321.8
414.50	2369.0
415.00	2427.6
415.50	2495.4
416.00	2567.8
416.50	2628.7
417.00	2708.0
417.50	2783.9
418.00	2856.3
418.50	2937.9
419.00	3024.1
419.50	3112.6
420.00	3204.6
420.50	3287.4
421.00	3392.0
421.50	3494.3
422.00	3609.2
422.50	3709.2
423.00	3828.7
423.50	3955.2
424.00	4081.6
424.50	4221.8
425.00	4366.7
425.50	4511.5
426.00	4672.4
426.50	4826.4
427.00	4996.6
427.50	5169.0
428.00	5350.6
428.50	5547.1
429.00	5750.6
429.50	5960.9
430.00	6173.6
430.50	6401.2
431.00	6634.5
431.50	6873.6
432.00	7126.4
432.50	7374.7
433.00	7646.0
433.50	7926.4
434.00	8206.9
434.50	8483.9
435.00	8777.0
435.50	9067.8
436.00	9372.4
436.50	9665.5
437.00	9977.0
437.50	10285
438.00	10601
438.50	10908
439.00	11221
439.50	11553
440.00	11862
440.50	12193
441.00	12515
441.50	12849
442.00	13180
442.50	13513
443.00	13861
443.50	14229
444.00	14608
444.50	14997
445.00	15402
445.50	15841
446.00	16300
446.50	16783
447.00	17306
447.50	17847
448.00	18434
448.50	19063
449.00	19732
449.50	20453
450.00	21216
450.50	22013
451.00	22892
451.50	23821
452.00	24766
452.50	25863
453.00	26971
453.50	28166
454.00	29411
454.50	30717
455.00	32103
455.50	33561
456.00	35061
456.50	36610
457.00	38224
457.50	39870
458.00	41541
458.50	43199
459.00	44889
459.50	46544
460.00	48149
460.50	49713
461.00	51194
461.50	52611
462.00	53903
462.50	55083
463.00	56136
463.50	57056
464.00	57845
464.50	58509
465.00	59062
465.50	59515
466.00	59864
466.50	60166
467.00	60389
467.50	60556
468.00	60708
468.50	60820
469.00	60935
469.50	61075
470.00	61206
470.50	61379
471.00	61607
471.50	61923
472.00	62341
472.50	62859
473.00	63533
473.50	64405
474.00	65431
474.50	66662
475.00	68101
475.50	69798
476.00	71691
476.50	73786
477.00	76130
477.50	78669
478.00	81341
478.50	84151
479.00	87061
479.50	90053
480.00	92971
480.50	95902
481.00	98753
481.50	1.0149e+05
482.00	1.0401e+05
482.50	1.0631e+05
483.00	1.0837e+05
483.50	1.1019e+05
484.00	1.1174e+05
484.50	1.1298e+05
485.00	1.1393e+05
485.50	1.1456e+05
486.00	1.1493e+05
486.50	1.1500e+05
487.00	1.1483e+05
487.50	1.1436e+05
488.00	1.1362e+05
488.50	1.1263e+05
489.00	1.1141e+05
489.50	1.0990e+05
490.00	1.0815e+05
490.50	1.0616e+05
491.00	1.0389e+05
491.50	1.0140e+05
492.00	98661
492.50	95705
493.00	92492
493.50	89080
494.00	85524
494.50	81807
495.00	77932
495.50	73959
496.00	69944
496.50	65920
497.00	61886
497.50	57869
498.00	53974
498.50	50194
499.00	46492
499.50	42933
500.00	39574
500.50	36376
501.00	33354
501.50	30478
502.00	27817
502.50	25357
503.00	23030
503.50	20901
504.00	18931
504.50	17154
505.00	15490
505.50	13966
506.00	12602
506.50	11359
507.00	10214
507.50	9179.3
508.00	8242.5
508.50	7404.6
509.00	6640.2
509.50	5946.0
510.00	5333.3
510.50	4775.9
511.00	4280.5
511.50	3826.4
512.00	3432.2
512.50	3066.7
513.00	2746.0
513.50	2455.2
514.00	2192.0
514.50	1993.1
515.00	1766.7
515.50	1600.0
516.00	1431.0
516.50	1292.0
517.00	1152.9
517.50	1037.9
518.00	924.14
518.50	831.03
519.00	743.68
519.50	672.41
520.00	609.20
520.50	544.83
521.00	495.40
521.50	440.23
522.00	402.30
522.50	362.07
523.00	319.54
523.50	293.10
524.00	259.77
524.50	247.13
525.00	218.39
525.50	191.95
526.00	177.01
526.50	160.69
527.00	146.21
527.50	133.33
528.00	112.18
528.50	109.43
529.00	101.03
529.50	99.310
530.00	90.690
530.50	74.713
531.00	78.621
531.50	67.345
532.00	52.402
532.50	54.034
533.00	47.471
533.50	49.080
534.00	40.805
534.50	34.713
535.00	40.115
535.50	37.126
536.00	30.345
536.50	27.586
537.00	26.437
537.50	25.977
538.00	26.897
538.50	26.207
539.00	21.724
539.50	23.218
540.00	24.023
540.50	18.966
541.00	18.161
541.50	23.793
542.00	15.632
542.50	18.736
543.00	12.644
543.50	21.609
544.00	25.747
544.50	23.103
545.00	20.345
545.50	22.874
546.00	23.563
546.50	23.793
547.00	23.793
547.50	22.989
548.00	21.954
548.50	22.069
549.00	25.402
549.50	20.345
550.00	20.345
