Wavelength (nm)	"175, JOC 2011_6108, 2d"
200.00	
201.00	
202.00	
203.00	
204.00	
205.00	
206.00	
207.00	
208.00	
209.00	
210.00	
211.00	
212.00	
213.00	
214.00	
215.00	
216.00	
217.00	
218.00	
219.00	
220.00	
221.00	
222.00	
223.00	
224.00	
225.00	
226.00	
227.00	
228.00	
229.00	
230.00	
231.00	
232.00	
233.00	
234.00	
235.00	
236.00	
237.00	
238.00	
239.00	
240.00	
241.00	
242.00	
243.00	
244.00	
245.00	
246.00	
247.00	
248.00	
249.00	
250.00	
251.00	
252.00	
253.00	
254.00	
255.00	
256.00	
257.00	
258.00	
259.00	
260.00	
261.00	
262.00	
263.00	
264.00	
265.00	
266.00	
267.00	
268.00	
269.00	
270.00	
271.00	
272.00	
273.00	
274.00	
275.00	
276.00	
277.00	
278.00	
279.00	
280.00	
281.00	
282.00	
283.00	
284.00	
285.00	
286.00	
287.00	
288.00	
289.00	
290.00	
291.00	
292.00	
293.00	
294.00	
295.00	
296.00	
297.00	
298.00	
299.00	
300.00	0.77441
301.00	0.76017
302.00	0.74593
303.00	0.73168
304.00	0.71976
305.00	0.70789
306.00	0.69602
307.00	0.68414
308.00	0.67287
309.00	0.66498
310.00	0.65710
311.00	0.64922
312.00	0.64134
313.00	0.63345
314.00	0.62557
315.00	0.61886
316.00	0.61343
317.00	0.60799
318.00	0.60256
319.00	0.59712
320.00	0.59169
321.00	0.58743
322.00	0.58435
323.00	0.58126
324.00	0.57818
325.00	0.57510
326.00	0.57201
327.00	0.56893
328.00	0.56653
329.00	0.56528
330.00	0.56404
331.00	0.56279
332.00	0.56154
333.00	0.56030
334.00	0.55905
335.00	0.55811
336.00	0.55751
337.00	0.55692
338.00	0.55632
339.00	0.55573
340.00	0.55513
341.00	0.55459
342.00	0.55523
343.00	0.55587
344.00	0.55651
345.00	0.55715
346.00	0.55779
347.00	0.55842
348.00	0.55888
349.00	0.55934
350.00	0.55980
351.00	0.56026
352.00	0.56072
353.00	0.56118
354.00	0.56343
355.00	0.56600
356.00	0.56857
357.00	0.57114
358.00	0.57370
359.00	0.57627
360.00	0.57884
361.00	0.58145
362.00	0.58547
363.00	0.58949
364.00	0.59350
365.00	0.59752
366.00	0.60154
367.00	0.60555
368.00	0.60969
369.00	0.61465
370.00	0.61960
371.00	0.62456
372.00	0.62951
373.00	0.63447
374.00	0.63955
375.00	0.64537
376.00	0.65119
377.00	0.65700
378.00	0.66282
379.00	0.66963
380.00	0.67725
381.00	0.68487
382.00	0.69249
383.00	0.70011
384.00	0.70780
385.00	0.71774
386.00	0.72768
387.00	0.73762
388.00	0.74756
389.00	0.75750
390.00	0.76857
391.00	0.78004
392.00	0.79151
393.00	0.80298
394.00	0.81445
395.00	0.82592
396.00	0.83742
397.00	0.84893
398.00	0.86045
399.00	0.87196
400.00	0.88347
401.00	0.89495
402.00	0.90376
403.00	0.91257
404.00	0.92138
405.00	0.93019
406.00	0.93900
407.00	0.94687
408.00	0.95206
409.00	0.95726
410.00	0.96245
411.00	0.96765
412.00	0.97284
413.00	0.97804
414.00	0.98260
415.00	0.98703
416.00	0.99146
417.00	0.99535
418.00	0.99767
419.00	1.0000
420.00	0.99820
421.00	0.99640
422.00	0.99410
423.00	0.98608
424.00	0.97805
425.00	0.96718
426.00	0.95202
427.00	0.93685
428.00	0.91454
429.00	0.88945
430.00	0.86435
431.00	0.83873
432.00	0.80610
433.00	0.77347
434.00	0.74084
435.00	0.70822
436.00	0.67501
437.00	0.64119
438.00	0.60736
439.00	0.57353
440.00	0.54258
441.00	0.51222
442.00	0.48185
443.00	0.45149
444.00	0.42811
445.00	0.40472
446.00	0.38134
447.00	0.35796
448.00	0.34288
449.00	0.32796
450.00	0.31305
451.00	0.29814
452.00	0.28642
453.00	0.27570
454.00	0.26498
455.00	0.25426
456.00	0.24355
457.00	0.23423
458.00	0.22531
459.00	0.21639
460.00	0.20748
461.00	0.20107
462.00	0.19483
463.00	0.18859
464.00	0.18260
465.00	0.17864
466.00	0.17468
467.00	0.17071
468.00	0.16675
469.00	0.16366
470.00	0.16069
471.00	0.15772
472.00	0.15475
473.00	0.15178
474.00	0.14970
475.00	0.14842
476.00	0.14714
477.00	0.14586
478.00	0.14459
479.00	0.14401
480.00	0.14401
481.00	0.14401
482.00	0.14401
483.00	0.14401
484.00	0.14401
485.00	0.14435
486.00	0.14491
487.00	0.14547
488.00	0.14603
489.00	0.14659
490.00	0.14715
491.00	0.14771
492.00	0.14862
493.00	0.14986
494.00	0.15109
495.00	0.15233
496.00	0.15357
497.00	0.15481
498.00	0.15604
499.00	0.15730
500.00	0.15859
501.00	0.15987
502.00	0.16116
503.00	0.16244
504.00	0.16373
505.00	0.16501
506.00	0.16630
507.00	0.16771
508.00	0.16935
509.00	0.17098
510.00	0.17262
511.00	0.17425
512.00	0.17588
513.00	0.17752
514.00	0.17915
515.00	0.18078
516.00	0.18242
517.00	0.18405
518.00	0.18583
519.00	0.18768
520.00	0.18954
521.00	0.19139
522.00	0.19325
523.00	0.19511
524.00	0.19696
525.00	0.19882
526.00	0.20067
527.00	0.20275
528.00	0.20497
529.00	0.20718
530.00	0.20939
531.00	0.21161
532.00	0.21382
533.00	0.21603
534.00	0.21825
535.00	0.22046
536.00	0.22280
537.00	0.22522
538.00	0.22763
539.00	0.23005
540.00	0.23247
541.00	0.23488
542.00	0.23730
543.00	0.23971
544.00	0.24213
545.00	0.24455
546.00	0.24696
547.00	0.24936
548.00	0.25177
549.00	0.25417
550.00	0.25657
551.00	0.25897
552.00	0.26138
553.00	0.26378
554.00	0.26618
555.00	0.26904
556.00	0.27242
557.00	0.27580
558.00	0.27919
559.00	0.28257
560.00	0.28595
561.00	0.28934
562.00	0.29272
563.00	0.29622
564.00	0.30013
565.00	0.30403
566.00	0.30794
567.00	0.31185
568.00	0.31575
569.00	0.31966
570.00	0.32365
571.00	0.32764
572.00	0.33164
573.00	0.33563
574.00	0.33963
575.00	0.34362
576.00	0.34758
577.00	0.35140
578.00	0.35522
579.00	0.35904
580.00	0.36286
581.00	0.36669
582.00	0.37051
583.00	0.37433
584.00	0.37809
585.00	0.38164
586.00	0.38519
587.00	0.38875
588.00	0.39230
589.00	0.39585
590.00	0.39941
591.00	0.40296
592.00	0.40657
593.00	0.41022
594.00	0.41387
595.00	0.41753
596.00	0.42118
597.00	0.42483
598.00	0.42848
599.00	0.43213
600.00	0.43578
601.00	0.43939
602.00	0.44291
603.00	0.44642
604.00	0.44993
605.00	0.45345
606.00	0.45696
607.00	0.46047
608.00	0.46398
609.00	0.46750
610.00	0.47099
611.00	0.47397
612.00	0.47696
613.00	0.47994
614.00	0.48292
615.00	0.48591
616.00	0.48889
617.00	0.49187
618.00	0.49408
619.00	0.49595
620.00	0.49782
621.00	0.49969
622.00	0.50156
623.00	0.50343
624.00	0.50499
625.00	0.50588
626.00	0.50676
627.00	0.50764
628.00	0.50852
629.00	0.50938
630.00	0.50966
631.00	0.50993
632.00	0.51021
633.00	0.50969
634.00	0.50916
635.00	0.50864
636.00	0.50812
637.00	0.50682
638.00	0.50538
639.00	0.50394
640.00	0.50250
641.00	0.50057
642.00	0.49843
643.00	0.49629
644.00	0.49414
645.00	0.49200
646.00	0.48945
647.00	0.48636
648.00	0.48328
649.00	0.48019
650.00	0.47710
651.00	0.47401
652.00	0.47066
653.00	0.46725
654.00	0.46384
655.00	0.46043
656.00	0.45702
657.00	0.45361
658.00	0.44881
659.00	0.44313
660.00	0.43745
661.00	0.43177
662.00	0.42609
663.00	0.42117
664.00	0.41642
665.00	0.41167
666.00	0.40692
667.00	0.40217
668.00	0.39717
669.00	0.39135
670.00	0.38553
671.00	0.37971
672.00	0.37389
673.00	0.36804
674.00	0.36217
675.00	0.35629
676.00	0.35041
677.00	0.34453
678.00	0.33865
679.00	0.33278
680.00	0.32669
681.00	0.32058
682.00	0.31447
683.00	0.30835
684.00	0.30224
685.00	0.29613
686.00	0.29002
687.00	0.28391
688.00	0.27800
689.00	0.27237
690.00	0.26674
691.00	0.26111
692.00	0.25549
693.00	0.24986
694.00	0.24423
695.00	0.23860
696.00	0.23321
697.00	0.22842
698.00	0.22364
699.00	0.21885
700.00	0.21406
701.00	0.20928
702.00	0.20449
703.00	0.19970
704.00	0.19492
705.00	0.19013
706.00	0.18534
707.00	0.18115
708.00	0.17717
709.00	0.17318
710.00	0.16920
711.00	0.16521
712.00	0.16123
713.00	0.15724
714.00	0.15326
715.00	0.14927
716.00	0.14529
717.00	0.14131
718.00	0.13734
719.00	0.13361
720.00	0.12987
721.00	0.12614
722.00	0.12240
723.00	0.11867
724.00	0.11493
725.00	0.11120
726.00	0.10746
727.00	0.10373
728.00	0.099993
729.00	0.096304
730.00	0.093344
731.00	0.090383
732.00	0.087422
733.00	0.084462
734.00	0.081501
735.00	0.078541
736.00	0.075580
737.00	0.072619
738.00	0.069659
739.00	0.066698
740.00	0.063737
741.00	0.060777
742.00	0.058042
743.00	0.055889
744.00	0.053736
745.00	0.051582
746.00	0.049429
747.00	0.047276
748.00	0.045123
749.00	0.042969
750.00	0.040816
751.00	0.038862
752.00	0.037295
753.00	0.035727
754.00	0.034160
755.00	0.032592
756.00	0.031025
757.00	0.029458
758.00	0.027890
759.00	0.026323
760.00	0.024993
761.00	0.023698
762.00	0.022404
763.00	0.021110
764.00	0.019815
765.00	0.018521
766.00	0.017226
767.00	0.016284
768.00	0.015501
769.00	0.014717
770.00	0.013933
771.00	0.013149
772.00	0.012366
773.00	0.011582
774.00	0.010798
775.00	0.010046
776.00	0.0094071
777.00	0.0087678
778.00	0.0081285
779.00	0.0074892
780.00	0.0068500
781.00	0.0062107
782.00	0.0059297
783.00	0.0056524
784.00	0.0053750
785.00	0.0050977
786.00	0.0048203
787.00	0.0045430
788.00	0.0042656
789.00	0.0038586
790.00	0.0034212
791.00	0.0029837
792.00	0.0025463
793.00	0.0021089
794.00	0.0016714
795.00	0.0015577
796.00	0.0015577
797.00	0.0015577
798.00	0.0015577
799.00	0.0015577
800.00	0.0015577
801.00	
802.00	
803.00	
804.00	
805.00	
806.00	
807.00	
808.00	
809.00	
810.00	
811.00	
812.00	
813.00	
814.00	
815.00	
816.00	
817.00	
818.00	
819.00	
820.00	
821.00	
822.00	
823.00	
824.00	
825.00	
826.00	
827.00	
828.00	
829.00	
830.00	
831.00	
832.00	
833.00	
834.00	
835.00	
836.00	
837.00	
838.00	
839.00	
840.00	
841.00	
842.00	
843.00	
844.00	
845.00	
846.00	
847.00	
848.00	
849.00	
850.00	
851.00	
852.00	
853.00	
854.00	
855.00	
856.00	
857.00	
858.00	
859.00	
860.00	
861.00	
862.00	
863.00	
864.00	
865.00	
866.00	
867.00	
868.00	
869.00	
870.00	
871.00	
872.00	
873.00	
874.00	
875.00	
876.00	
877.00	
878.00	
879.00	
880.00	
881.00	
882.00	
883.00	
884.00	
885.00	
886.00	
887.00	
888.00	
889.00	
890.00	
891.00	
892.00	
893.00	
894.00	
895.00	
896.00	
897.00	
898.00	
899.00	
900.00	
901.00	
902.00	
903.00	
904.00	
905.00	
906.00	
907.00	
908.00	
909.00	
910.00	
911.00	
912.00	
913.00	
914.00	
915.00	
916.00	
917.00	
918.00	
919.00	
920.00	
921.00	
922.00	
923.00	
924.00	
925.00	
926.00	
927.00	
928.00	
929.00	
930.00	
931.00	
932.00	
933.00	
934.00	
935.00	
936.00	
937.00	
938.00	
939.00	
940.00	
941.00	
942.00	
943.00	
944.00	
945.00	
946.00	
947.00	
948.00	
949.00	
950.00	
951.00	
952.00	
953.00	
954.00	
955.00	
956.00	
957.00	
958.00	
959.00	
960.00	
961.00	
962.00	
963.00	
964.00	
965.00	
966.00	
967.00	
968.00	
969.00	
970.00	
971.00	
972.00	
973.00	
974.00	
975.00	
976.00	
977.00	
978.00	
979.00	
980.00	
981.00	
982.00	
983.00	
984.00	
985.00	
986.00	
987.00	
988.00	
989.00	
990.00	
991.00	
992.00	
993.00	
994.00	
995.00	
996.00	
997.00	
998.00	
999.00	
1000.0	
1001.0	
1002.0	
1003.0	
1004.0	
1005.0	
1006.0	
1007.0	
1008.0	
1009.0	
1010.0	
1011.0	
1012.0	
1013.0	
1014.0	
1015.0	
1016.0	
1017.0	
1018.0	
1019.0	
1020.0	
1021.0	
1022.0	
1023.0	
1024.0	
1025.0	
1026.0	
1027.0	
1028.0	
1029.0	
1030.0	
1031.0	
1032.0	
1033.0	
1034.0	
1035.0	
1036.0	
1037.0	
1038.0	
1039.0	
1040.0	
1041.0	
1042.0	
1043.0	
1044.0	
1045.0	
1046.0	
1047.0	
1048.0	
1049.0	
1050.0	
1051.0	
1052.0	
1053.0	
1054.0	
1055.0	
1056.0	
1057.0	
1058.0	
1059.0	
1060.0	
1061.0	
1062.0	
1063.0	
1064.0	
1065.0	
1066.0	
1067.0	
1068.0	
1069.0	
1070.0	
1071.0	
1072.0	
1073.0	
1074.0	
1075.0	
1076.0	
1077.0	
1078.0	
1079.0	
1080.0	
1081.0	
1082.0	
1083.0	
1084.0	
1085.0	
1086.0	
1087.0	
1088.0	
1089.0	
1090.0	
1091.0	
1092.0	
1093.0	
1094.0	
1095.0	
1096.0	
1097.0	
1098.0	
1099.0	
1100.0	
1101.0	
1102.0	
1103.0	
1104.0	
1105.0	
1106.0	
1107.0	
1108.0	
1109.0	
1110.0	
1111.0	
1112.0	
1113.0	
1114.0	
1115.0	
1116.0	
1117.0	
1118.0	
1119.0	
1120.0	
1121.0	
1122.0	
1123.0	
1124.0	
1125.0	
1126.0	
1127.0	
1128.0	
1129.0	
1130.0	
1131.0	
1132.0	
1133.0	
1134.0	
1135.0	
1136.0	
1137.0	
1138.0	
1139.0	
1140.0	
1141.0	
1142.0	
1143.0	
1144.0	
1145.0	
1146.0	
1147.0	
1148.0	
1149.0	
1150.0	
1151.0	
1152.0	
1153.0	
1154.0	
1155.0	
1156.0	
1157.0	
1158.0	
1159.0	
1160.0	
1161.0	
1162.0	
1163.0	
1164.0	
1165.0	
1166.0	
1167.0	
1168.0	
1169.0	
1170.0	
1171.0	
1172.0	
1173.0	
1174.0	
1175.0	
1176.0	
1177.0	
1178.0	
1179.0	
1180.0	
1181.0	
1182.0	
1183.0	
1184.0	
1185.0	
1186.0	
1187.0	
1188.0	
1189.0	
1190.0	
1191.0	
1192.0	
1193.0	
1194.0	
1195.0	
1196.0	
1197.0	
1198.0	
1199.0	
1200.0	
