Wavelength (nm)	212, PCPB 1993_58_116, 2a
400.00	
401.00	
402.00	
403.00	
404.00	
405.00	
406.00	
407.00	
408.00	
409.00	
410.00	
411.00	
412.00	
413.00	
414.00	
415.00	
416.00	
417.00	
418.00	
419.00	
420.00	
421.00	
422.00	
423.00	
424.00	
425.00	
426.00	
427.00	
428.00	
429.00	
430.00	
431.00	
432.00	
433.00	
434.00	
435.00	
436.00	
437.00	
438.00	
439.00	
440.00	
441.00	
442.00	
443.00	
444.00	
445.00	
446.00	
447.00	
448.00	
449.00	
450.00	
451.00	
452.00	
453.00	
454.00	
455.00	
456.00	
457.00	
458.00	
459.00	
460.00	
461.00	
462.00	
463.00	
464.00	
465.00	
466.00	
467.00	
468.00	
469.00	
470.00	
471.00	
472.00	
473.00	
474.00	
475.00	
476.00	
477.00	
478.00	
479.00	
480.00	
481.00	
482.00	
483.00	
484.00	
485.00	
486.00	
487.00	
488.00	
489.00	
490.00	
491.00	
492.00	
493.00	
494.00	
495.00	
496.00	
497.00	
498.00	
499.00	
500.00	
501.00	
502.00	
503.00	
504.00	
505.00	
506.00	
507.00	
508.00	
509.00	
510.00	
511.00	
512.00	
513.00	
514.00	
515.00	
516.00	
517.00	
518.00	
519.00	
520.00	
521.00	
522.00	
523.00	
524.00	
525.00	0.00094409
526.00	0.00094854
527.00	0.00095299
528.00	0.00095743
529.00	0.00096188
530.00	0.00096633
531.00	0.00097078
532.00	0.00097522
533.00	0.00097967
534.00	0.00098412
535.00	0.00098857
536.00	0.0011669
537.00	0.0013689
538.00	0.0015709
539.00	0.0017729
540.00	0.0019749
541.00	0.0021769
542.00	0.0023789
543.00	0.0026456
544.00	0.0034942
545.00	0.0043428
546.00	0.0051914
547.00	0.0060400
548.00	0.0068886
549.00	0.0077372
550.00	0.0085858
551.00	0.0098030
552.00	0.011420
553.00	0.013036
554.00	0.014653
555.00	0.016269
556.00	0.017886
557.00	0.019502
558.00	0.021099
559.00	0.022675
560.00	0.024251
561.00	0.025826
562.00	0.027402
563.00	0.029880
564.00	0.034034
565.00	0.038188
566.00	0.042342
567.00	0.046496
568.00	0.054607
569.00	0.064581
570.00	0.074555
571.00	0.084529
572.00	0.097452
573.00	0.11116
574.00	0.12486
575.00	0.13889
576.00	0.15344
577.00	0.16800
578.00	0.18442
579.00	0.20617
580.00	0.22791
581.00	0.24965
582.00	0.27707
583.00	0.30557
584.00	0.33407
585.00	0.36621
586.00	0.39977
587.00	0.43333
588.00	0.46808
589.00	0.50561
590.00	0.54314
591.00	0.57951
592.00	0.61473
593.00	0.64995
594.00	0.68315
595.00	0.71548
596.00	0.74781
597.00	0.77332
598.00	0.79655
599.00	0.81979
600.00	0.84388
601.00	0.86889
602.00	0.89390
603.00	0.91547
604.00	0.93525
605.00	0.95227
606.00	0.96440
607.00	0.97284
608.00	0.98107
609.00	0.98701
610.00	0.99294
611.00	0.99659
612.00	1.0000
613.00	0.99668
614.00	0.99336
615.00	0.98947
616.00	0.97911
617.00	0.96874
618.00	0.95785
619.00	0.94677
620.00	0.93668
621.00	0.92943
622.00	0.92218
623.00	0.91534
624.00	0.91105
625.00	0.90676
626.00	0.90499
627.00	0.90573
628.00	0.90647
629.00	0.90721
630.00	0.90847
631.00	0.91294
632.00	0.91740
633.00	0.92186
634.00	0.92443
635.00	0.92674
636.00	0.92891
637.00	0.92936
638.00	0.92981
639.00	0.93026
640.00	0.92953
641.00	0.92760
642.00	0.92567
643.00	0.92375
644.00	0.91949
645.00	0.91355
646.00	0.90760
647.00	0.90166
648.00	0.89566
649.00	0.88960
650.00	0.88353
651.00	0.87746
652.00	0.86994
653.00	0.86173
654.00	0.85353
655.00	0.84407
656.00	0.83296
657.00	0.82185
658.00	0.81074
659.00	0.79969
660.00	0.78869
661.00	0.77770
662.00	0.76670
663.00	0.75557
664.00	0.74363
665.00	0.73169
666.00	0.71975
667.00	0.70781
668.00	0.69587
669.00	0.68143
670.00	0.66687
671.00	0.65231
672.00	0.63774
673.00	0.62318
674.00	0.60983
675.00	0.59685
676.00	0.58387
677.00	0.57089
678.00	0.55784
679.00	0.54412
680.00	0.53040
681.00	0.51668
682.00	0.50296
683.00	0.48923
684.00	0.47551
685.00	0.46397
686.00	0.45376
687.00	0.44355
688.00	0.43333
689.00	0.42312
690.00	0.41291
691.00	0.40270
692.00	0.39264
693.00	0.38392
694.00	0.37521
695.00	0.36650
696.00	0.35778
697.00	0.34907
698.00	0.34036
699.00	0.33164
700.00	0.32294
701.00	0.31437
702.00	0.30580
703.00	0.29724
704.00	0.28867
705.00	0.28010
706.00	0.27153
707.00	0.26297
708.00	0.25582
709.00	0.24938
710.00	0.24293
711.00	0.23649
712.00	0.23004
713.00	0.22360
714.00	0.21729
715.00	0.21154
716.00	0.20578
717.00	0.20003
718.00	0.19428
719.00	0.18853
720.00	0.18285
721.00	0.17784
722.00	0.17283
723.00	0.16782
724.00	0.16281
725.00	0.15780
726.00	0.15279
727.00	0.14778
728.00	0.14386
729.00	0.14015
730.00	0.13644
731.00	0.13273
732.00	0.12901
733.00	0.12530
734.00	0.12159
735.00	0.11765
736.00	0.11354
737.00	0.10943
738.00	0.10532
739.00	0.10122
740.00	0.097107
741.00	0.093367
742.00	0.090310
743.00	0.087253
744.00	0.084196
745.00	0.081139
746.00	0.078082
747.00	0.075025
748.00	0.072406
749.00	0.069940
750.00	0.067475
751.00	0.065010
752.00	0.062545
753.00	0.060079
754.00	0.058049
755.00	0.056142
756.00	0.054235
757.00	0.052328
758.00	0.050421
759.00	0.048514
760.00	0.046607
761.00	0.045189
762.00	0.044035
763.00	0.042880
764.00	0.041726
765.00	0.040572
766.00	0.039418
767.00	0.038263
768.00	0.037109
769.00	0.036019
770.00	0.034997
771.00	0.033975
772.00	0.032953
773.00	0.031931
774.00	0.030909
775.00	0.029887
776.00	0.028865
777.00	0.027813
778.00	0.026736
779.00	0.025660
780.00	0.024584
781.00	0.023507
782.00	0.022431
783.00	0.021355
784.00	0.020304
785.00	0.019658
786.00	0.019011
787.00	0.018365
788.00	0.017718
789.00	0.017071
790.00	0.016425
791.00	0.015778
792.00	0.015407
793.00	0.015104
794.00	0.014802
795.00	0.014499
796.00	0.014197
797.00	0.013894
798.00	0.013566
799.00	0.012739
800.00	0.011913
801.00	
802.00	
803.00	
804.00	
805.00	
806.00	
807.00	
808.00	
809.00	
810.00	
811.00	
812.00	
813.00	
814.00	
815.00	
816.00	
817.00	
818.00	
819.00	
820.00	
821.00	
822.00	
823.00	
824.00	
825.00	
826.00	
827.00	
828.00	
829.00	
830.00	
831.00	
832.00	
833.00	
834.00	
835.00	
836.00	
837.00	
838.00	
839.00	
840.00	
841.00	
842.00	
843.00	
844.00	
845.00	
846.00	
847.00	
848.00	
849.00	
850.00	
