Wavelength (nm)	"103, Biochem J 1981_194_137, PCB-DME"
200.00	
201.00	
202.00	
203.00	
204.00	
205.00	
206.00	
207.00	
208.00	
209.00	
210.00	
211.00	
212.00	
213.00	
214.00	
215.00	
216.00	
217.00	
218.00	
219.00	
220.00	
221.00	
222.00	
223.00	
224.00	
225.00	
226.00	
227.00	
228.00	
229.00	
230.00	
231.00	
232.00	
233.00	
234.00	
235.00	
236.00	
237.00	
238.00	
239.00	
240.00	
241.00	
242.00	
243.00	
244.00	
245.00	
246.00	
247.00	
248.00	
249.00	
250.00	
251.00	
252.00	
253.00	
254.00	
255.00	
256.00	
257.00	
258.00	
259.00	
260.00	
261.00	
262.00	
263.00	
264.00	
265.00	
266.00	
267.00	
268.00	
269.00	
270.00	
271.00	
272.00	
273.00	
274.00	
275.00	
276.00	
277.00	
278.00	
279.00	
280.00	
281.00	
282.00	
283.00	
284.00	
285.00	
286.00	
287.00	
288.00	
289.00	
290.00	
291.00	
292.00	
293.00	
294.00	
295.00	
296.00	
297.00	
298.00	
299.00	
300.00	
301.00	
302.00	
303.00	
304.00	
305.00	
306.00	
307.00	
308.00	
309.00	
310.00	
311.00	
312.00	
313.00	
314.00	
315.00	
316.00	
317.00	
318.00	
319.00	
320.00	
321.00	
322.00	
323.00	
324.00	
325.00	
326.00	
327.00	
328.00	
329.00	
330.00	
331.00	
332.00	
333.00	
334.00	
335.00	
336.00	
337.00	
338.00	
339.00	
340.00	
341.00	
342.00	
343.00	
344.00	
345.00	
346.00	
347.00	
348.00	
349.00	
350.00	0.76559
351.00	0.77740
352.00	0.78989
353.00	0.80465
354.00	0.81941
355.00	0.83356
356.00	0.84771
357.00	0.86185
358.00	0.87687
359.00	0.89189
360.00	0.90691
361.00	0.92070
362.00	0.93430
363.00	0.94789
364.00	0.96033
365.00	0.97190
366.00	0.98347
367.00	0.99252
368.00	0.99775
369.00	1.0000
370.00	0.99727
371.00	0.98386
372.00	0.95691
373.00	0.92941
374.00	0.90663
375.00	0.88386
376.00	0.85767
377.00	0.82930
378.00	0.80092
379.00	0.76639
380.00	0.73133
381.00	0.69525
382.00	0.65577
383.00	0.61746
384.00	0.57956
385.00	0.55104
386.00	0.52500
387.00	0.49961
388.00	0.47611
389.00	0.45262
390.00	0.43145
391.00	0.41212
392.00	0.39280
393.00	0.37423
394.00	0.35566
395.00	0.33839
396.00	0.32250
397.00	0.30662
398.00	0.29073
399.00	0.27686
400.00	0.26555
401.00	0.25423
402.00	0.24291
403.00	0.23173
404.00	0.22170
405.00	0.21168
406.00	0.20166
407.00	0.19222
408.00	0.18487
409.00	0.17751
410.00	0.17015
411.00	0.16280
412.00	0.15558
413.00	0.14926
414.00	0.14294
415.00	0.13661
416.00	0.13029
417.00	0.12397
418.00	0.11957
419.00	0.11539
420.00	0.11121
421.00	0.10702
422.00	0.10284
423.00	0.099608
424.00	0.096844
425.00	0.094080
426.00	0.091317
427.00	0.088553
428.00	0.085789
429.00	0.083436
430.00	0.081269
431.00	0.079101
432.00	0.076933
433.00	0.074766
434.00	0.072598
435.00	0.070638
436.00	0.068976
437.00	0.067314
438.00	0.065653
439.00	0.063991
440.00	0.062329
441.00	0.060668
442.00	0.059399
443.00	0.058315
444.00	0.057232
445.00	0.056148
446.00	0.055064
447.00	0.053980
448.00	0.053063
449.00	0.052396
450.00	0.051729
451.00	0.051061
452.00	0.050394
453.00	0.049727
454.00	0.049328
455.00	0.049130
456.00	0.048933
457.00	0.048736
458.00	0.048539
459.00	0.048417
460.00	0.048338
461.00	0.048259
462.00	0.048179
463.00	0.048100
464.00	0.048021
465.00	0.048179
466.00	0.048567
467.00	0.048954
468.00	0.049341
469.00	0.049728
470.00	0.050115
471.00	0.050545
472.00	0.051119
473.00	0.051693
474.00	0.052267
475.00	0.052842
476.00	0.053416
477.00	0.053990
478.00	0.054564
479.00	0.055338
480.00	0.056240
481.00	0.057142
482.00	0.058044
483.00	0.058946
484.00	0.059925
485.00	0.061176
486.00	0.062427
487.00	0.063678
488.00	0.064929
489.00	0.066180
490.00	0.067504
491.00	0.068943
492.00	0.070382
493.00	0.071820
494.00	0.073259
495.00	0.074698
496.00	0.076137
497.00	0.078008
498.00	0.079893
499.00	0.081779
500.00	0.083664
501.00	0.085549
502.00	0.087434
503.00	0.089319
504.00	0.091418
505.00	0.093742
506.00	0.096065
507.00	0.098388
508.00	0.10071
509.00	0.10303
510.00	0.10543
511.00	0.10812
512.00	0.11080
513.00	0.11349
514.00	0.11617
515.00	0.11886
516.00	0.12154
517.00	0.12433
518.00	0.12734
519.00	0.13035
520.00	0.13336
521.00	0.13636
522.00	0.13937
523.00	0.14238
524.00	0.14539
525.00	0.14855
526.00	0.15194
527.00	0.15534
528.00	0.15873
529.00	0.16212
530.00	0.16551
531.00	0.16891
532.00	0.17238
533.00	0.17593
534.00	0.17948
535.00	0.18303
536.00	0.18658
537.00	0.19012
538.00	0.19367
539.00	0.19722
540.00	0.20075
541.00	0.20425
542.00	0.20774
543.00	0.21124
544.00	0.21473
545.00	0.21823
546.00	0.22172
547.00	0.22521
548.00	0.22873
549.00	0.23230
550.00	0.23586
551.00	0.23943
552.00	0.24300
553.00	0.24657
554.00	0.25014
555.00	0.25371
556.00	0.25698
557.00	0.26006
558.00	0.26314
559.00	0.26622
560.00	0.26930
561.00	0.27238
562.00	0.27547
563.00	0.27855
564.00	0.28160
565.00	0.28443
566.00	0.28725
567.00	0.29007
568.00	0.29290
569.00	0.29572
570.00	0.29854
571.00	0.30137
572.00	0.30408
573.00	0.30627
574.00	0.30846
575.00	0.31065
576.00	0.31284
577.00	0.31503
578.00	0.31722
579.00	0.31941
580.00	0.32156
581.00	0.32371
582.00	0.32586
583.00	0.32800
584.00	0.33015
585.00	0.33230
586.00	0.33444
587.00	0.33613
588.00	0.33770
589.00	0.33928
590.00	0.34086
591.00	0.34244
592.00	0.34404
593.00	0.34567
594.00	0.34729
595.00	0.34892
596.00	0.35046
597.00	0.35112
598.00	0.35178
599.00	0.35245
600.00	0.35311
601.00	0.35302
602.00	0.35293
603.00	0.35284
604.00	0.35248
605.00	0.35205
606.00	0.35161
607.00	0.35118
608.00	0.35069
609.00	0.35009
610.00	0.34948
611.00	0.34887
612.00	0.34826
613.00	0.34734
614.00	0.34609
615.00	0.34485
616.00	0.34361
617.00	0.34236
618.00	0.34092
619.00	0.33922
620.00	0.33751
621.00	0.33580
622.00	0.33409
623.00	0.33239
624.00	0.33059
625.00	0.32867
626.00	0.32676
627.00	0.32484
628.00	0.32293
629.00	0.32085
630.00	0.31849
631.00	0.31612
632.00	0.31376
633.00	0.31140
634.00	0.30892
635.00	0.30628
636.00	0.30363
637.00	0.30099
638.00	0.29834
639.00	0.29518
640.00	0.29173
641.00	0.28828
642.00	0.28483
643.00	0.28138
644.00	0.27764
645.00	0.27379
646.00	0.26994
647.00	0.26609
648.00	0.26224
649.00	0.25836
650.00	0.25362
651.00	0.24888
652.00	0.24413
653.00	0.23913
654.00	0.23378
655.00	0.22843
656.00	0.22308
657.00	0.21774
658.00	0.21232
659.00	0.20679
660.00	0.20125
661.00	0.19572
662.00	0.19018
663.00	0.18453
664.00	0.17885
665.00	0.17318
666.00	0.16751
667.00	0.16184
668.00	0.15662
669.00	0.15165
670.00	0.14669
671.00	0.14172
672.00	0.13675
673.00	0.13210
674.00	0.12770
675.00	0.12330
676.00	0.11889
677.00	0.11449
678.00	0.11044
679.00	0.10678
680.00	0.10311
681.00	0.099452
682.00	0.095790
683.00	0.092624
684.00	0.089681
685.00	0.086737
686.00	0.083794
687.00	0.080850
688.00	0.078288
689.00	0.075768
690.00	0.073248
691.00	0.070728
692.00	0.068382
693.00	0.066508
694.00	0.064634
695.00	0.062761
696.00	0.060887
697.00	0.059114
698.00	0.057536
699.00	0.055959
700.00	0.054382
701.00	0.052805
702.00	0.051255
703.00	0.049953
704.00	0.048652
705.00	0.047350
706.00	0.046049
707.00	0.044747
708.00	0.043798
709.00	0.042902
710.00	0.042006
711.00	0.041110
712.00	0.040178
713.00	0.039214
714.00	0.038250
715.00	0.037286
716.00	
717.00	
718.00	
719.00	
720.00	
721.00	
722.00	
723.00	
724.00	
725.00	
726.00	
727.00	
728.00	
729.00	
730.00	
731.00	
732.00	
733.00	
734.00	
735.00	
736.00	
737.00	
738.00	
739.00	
740.00	
741.00	
742.00	
743.00	
744.00	
745.00	
746.00	
747.00	
748.00	
749.00	
750.00	
751.00	
752.00	
753.00	
754.00	
755.00	
756.00	
757.00	
758.00	
759.00	
760.00	
761.00	
762.00	
763.00	
764.00	
765.00	
766.00	
767.00	
768.00	
769.00	
770.00	
771.00	
772.00	
773.00	
774.00	
775.00	
776.00	
777.00	
778.00	
779.00	
780.00	
781.00	
782.00	
783.00	
784.00	
785.00	
786.00	
787.00	
788.00	
789.00	
790.00	
791.00	
792.00	
793.00	
794.00	
795.00	
796.00	
797.00	
798.00	
799.00	
800.00	
801.00	
802.00	
803.00	
804.00	
805.00	
806.00	
807.00	
808.00	
809.00	
810.00	
811.00	
812.00	
813.00	
814.00	
815.00	
816.00	
817.00	
818.00	
819.00	
820.00	
821.00	
822.00	
823.00	
824.00	
825.00	
826.00	
827.00	
828.00	
829.00	
830.00	
831.00	
832.00	
833.00	
834.00	
835.00	
836.00	
837.00	
838.00	
839.00	
840.00	
841.00	
842.00	
843.00	
844.00	
845.00	
846.00	
847.00	
848.00	
849.00	
850.00	
851.00	
852.00	
853.00	
854.00	
855.00	
856.00	
857.00	
858.00	
859.00	
860.00	
861.00	
862.00	
863.00	
864.00	
865.00	
866.00	
867.00	
868.00	
869.00	
870.00	
871.00	
872.00	
873.00	
874.00	
875.00	
876.00	
877.00	
878.00	
879.00	
880.00	
881.00	
882.00	
883.00	
884.00	
885.00	
886.00	
887.00	
888.00	
889.00	
890.00	
891.00	
892.00	
893.00	
894.00	
895.00	
896.00	
897.00	
898.00	
899.00	
900.00	
901.00	
902.00	
903.00	
904.00	
905.00	
906.00	
907.00	
908.00	
909.00	
910.00	
911.00	
912.00	
913.00	
914.00	
915.00	
916.00	
917.00	
918.00	
919.00	
920.00	
921.00	
922.00	
923.00	
924.00	
925.00	
926.00	
927.00	
928.00	
929.00	
930.00	
931.00	
932.00	
933.00	
934.00	
935.00	
936.00	
937.00	
938.00	
939.00	
940.00	
941.00	
942.00	
943.00	
944.00	
945.00	
946.00	
947.00	
948.00	
949.00	
950.00	
951.00	
952.00	
953.00	
954.00	
955.00	
956.00	
957.00	
958.00	
959.00	
960.00	
961.00	
962.00	
963.00	
964.00	
965.00	
966.00	
967.00	
968.00	
969.00	
970.00	
971.00	
972.00	
973.00	
974.00	
975.00	
976.00	
977.00	
978.00	
979.00	
980.00	
981.00	
982.00	
983.00	
984.00	
985.00	
986.00	
987.00	
988.00	
989.00	
990.00	
991.00	
992.00	
993.00	
994.00	
995.00	
996.00	
997.00	
998.00	
999.00	
1000.0	
1001.0	
1002.0	
1003.0	
1004.0	
1005.0	
1006.0	
1007.0	
1008.0	
1009.0	
1010.0	
1011.0	
1012.0	
1013.0	
1014.0	
1015.0	
1016.0	
1017.0	
1018.0	
1019.0	
1020.0	
1021.0	
1022.0	
1023.0	
1024.0	
1025.0	
1026.0	
1027.0	
1028.0	
1029.0	
1030.0	
1031.0	
1032.0	
1033.0	
1034.0	
1035.0	
1036.0	
1037.0	
1038.0	
1039.0	
1040.0	
1041.0	
1042.0	
1043.0	
1044.0	
1045.0	
1046.0	
1047.0	
1048.0	
1049.0	
1050.0	
1051.0	
1052.0	
1053.0	
1054.0	
1055.0	
1056.0	
1057.0	
1058.0	
1059.0	
1060.0	
1061.0	
1062.0	
1063.0	
1064.0	
1065.0	
1066.0	
1067.0	
1068.0	
1069.0	
1070.0	
1071.0	
1072.0	
1073.0	
1074.0	
1075.0	
1076.0	
1077.0	
1078.0	
1079.0	
1080.0	
1081.0	
1082.0	
1083.0	
1084.0	
1085.0	
1086.0	
1087.0	
1088.0	
1089.0	
1090.0	
1091.0	
1092.0	
1093.0	
1094.0	
1095.0	
1096.0	
1097.0	
1098.0	
1099.0	
1100.0	
1101.0	
1102.0	
1103.0	
1104.0	
1105.0	
1106.0	
1107.0	
1108.0	
1109.0	
1110.0	
1111.0	
1112.0	
1113.0	
1114.0	
1115.0	
1116.0	
1117.0	
1118.0	
1119.0	
1120.0	
1121.0	
1122.0	
1123.0	
1124.0	
1125.0	
1126.0	
1127.0	
1128.0	
1129.0	
1130.0	
1131.0	
1132.0	
1133.0	
1134.0	
1135.0	
1136.0	
1137.0	
1138.0	
1139.0	
1140.0	
1141.0	
1142.0	
1143.0	
1144.0	
1145.0	
1146.0	
1147.0	
1148.0	
1149.0	
1150.0	
1151.0	
1152.0	
1153.0	
1154.0	
1155.0	
1156.0	
1157.0	
1158.0	
1159.0	
1160.0	
1161.0	
1162.0	
1163.0	
1164.0	
1165.0	
1166.0	
1167.0	
1168.0	
1169.0	
1170.0	
1171.0	
1172.0	
1173.0	
1174.0	
1175.0	
1176.0	
1177.0	
1178.0	
1179.0	
1180.0	
1181.0	
1182.0	
1183.0	
1184.0	
1185.0	
1186.0	
1187.0	
1188.0	
1189.0	
1190.0	
1191.0	
1192.0	
1193.0	
1194.0	
1195.0	
1196.0	
1197.0	
1198.0	
1199.0	
1200.0	
