Wavelength (nm)	"73, JACS 1998_1274, Co OEFB"
200.00	
201.00	
202.00	
203.00	
204.00	
205.00	
206.00	
207.00	
208.00	
209.00	
210.00	
211.00	
212.00	
213.00	
214.00	
215.00	
216.00	
217.00	
218.00	
219.00	
220.00	
221.00	
222.00	
223.00	
224.00	
225.00	
226.00	
227.00	
228.00	
229.00	
230.00	
231.00	
232.00	
233.00	
234.00	
235.00	
236.00	
237.00	
238.00	
239.00	
240.00	
241.00	
242.00	
243.00	
244.00	
245.00	
246.00	
247.00	
248.00	
249.00	
250.00	0.73160
251.00	0.72652
252.00	0.72144
253.00	0.71636
254.00	0.71129
255.00	0.70621
256.00	0.70104
257.00	0.69585
258.00	0.69066
259.00	0.68548
260.00	0.68029
261.00	0.67515
262.00	0.67078
263.00	0.66642
264.00	0.66205
265.00	0.65768
266.00	0.65331
267.00	0.64905
268.00	0.64499
269.00	0.64093
270.00	0.63688
271.00	0.63282
272.00	0.62909
273.00	0.62697
274.00	0.62485
275.00	0.62273
276.00	0.62061
277.00	0.62144
278.00	0.62321
279.00	0.62498
280.00	0.62675
281.00	0.63049
282.00	0.63787
283.00	0.64526
284.00	0.65365
285.00	0.66305
286.00	0.67244
287.00	0.68184
288.00	0.69297
289.00	0.70526
290.00	0.71754
291.00	0.73289
292.00	0.75143
293.00	0.76997
294.00	0.78791
295.00	0.80549
296.00	0.82308
297.00	0.84090
298.00	0.85941
299.00	0.87792
300.00	0.89643
301.00	0.91148
302.00	0.92610
303.00	0.94072
304.00	0.95534
305.00	0.96984
306.00	0.98429
307.00	0.99687
308.00	0.99791
309.00	0.99896
310.00	1.0000
311.00	0.99721
312.00	0.99441
313.00	0.98752
314.00	0.97519
315.00	0.96259
316.00	0.94725
317.00	0.93191
318.00	0.91657
319.00	0.90123
320.00	0.88489
321.00	0.86333
322.00	0.84176
323.00	0.82046
324.00	0.80408
325.00	0.78771
326.00	0.77133
327.00	0.75495
328.00	0.73857
329.00	0.72424
330.00	0.71025
331.00	0.69625
332.00	0.68226
333.00	0.66974
334.00	0.65728
335.00	0.64482
336.00	0.63414
337.00	0.62706
338.00	0.61999
339.00	0.61292
340.00	0.60585
341.00	0.59956
342.00	0.59335
343.00	0.58714
344.00	0.58098
345.00	0.57675
346.00	0.57252
347.00	0.56828
348.00	0.56405
349.00	0.56092
350.00	0.55848
351.00	0.55605
352.00	0.55362
353.00	0.55118
354.00	0.54903
355.00	0.54832
356.00	0.54761
357.00	0.54690
358.00	0.54620
359.00	0.54673
360.00	0.54768
361.00	0.54863
362.00	0.54958
363.00	0.55053
364.00	0.55316
365.00	0.55617
366.00	0.55917
367.00	0.56217
368.00	0.56518
369.00	0.56898
370.00	0.57325
371.00	0.57752
372.00	0.58180
373.00	0.58607
374.00	0.59068
375.00	0.59544
376.00	0.60019
377.00	0.60495
378.00	0.60970
379.00	0.61446
380.00	0.61944
381.00	0.62466
382.00	0.62988
383.00	0.63511
384.00	0.64033
385.00	0.64556
386.00	0.65047
387.00	0.65506
388.00	0.65966
389.00	0.66426
390.00	0.66869
391.00	0.67152
392.00	0.67435
393.00	0.67718
394.00	0.68001
395.00	0.68228
396.00	0.68428
397.00	0.68628
398.00	0.68830
399.00	0.69033
400.00	0.69236
401.00	0.69198
402.00	0.69160
403.00	0.69122
404.00	0.69084
405.00	0.69034
406.00	0.68979
407.00	0.68924
408.00	0.68869
409.00	0.68815
410.00	0.68760
411.00	0.68697
412.00	0.68604
413.00	0.68511
414.00	0.68417
415.00	0.68324
416.00	0.68231
417.00	0.68138
418.00	0.67971
419.00	0.67800
420.00	0.67628
421.00	0.67457
422.00	0.67285
423.00	0.67113
424.00	0.66819
425.00	0.66507
426.00	0.66195
427.00	0.65883
428.00	0.65571
429.00	0.65188
430.00	0.64723
431.00	0.64258
432.00	0.63793
433.00	0.63328
434.00	0.62863
435.00	0.62397
436.00	0.61806
437.00	0.61153
438.00	0.60500
439.00	0.59846
440.00	0.59193
441.00	0.58540
442.00	0.57886
443.00	0.57228
444.00	0.56544
445.00	0.55859
446.00	0.55174
447.00	0.54489
448.00	0.53805
449.00	0.53120
450.00	0.52302
451.00	0.51417
452.00	0.50531
453.00	0.49645
454.00	0.48759
455.00	0.47610
456.00	0.46363
457.00	0.45116
458.00	0.43869
459.00	0.42622
460.00	0.41436
461.00	0.40303
462.00	0.39170
463.00	0.38037
464.00	0.36904
465.00	0.35957
466.00	0.35041
467.00	0.34124
468.00	0.33208
469.00	0.32291
470.00	0.31616
471.00	0.31059
472.00	0.30502
473.00	0.29945
474.00	0.29388
475.00	0.28831
476.00	0.28274
477.00	0.27740
478.00	0.27218
479.00	0.26695
480.00	0.26173
481.00	0.25650
482.00	0.25128
483.00	0.24781
484.00	0.24510
485.00	0.24239
486.00	0.23968
487.00	0.23696
488.00	0.23425
489.00	0.23154
490.00	0.22883
491.00	0.22662
492.00	0.22469
493.00	0.22276
494.00	0.22083
495.00	0.21890
496.00	0.21696
497.00	0.21503
498.00	0.21310
499.00	0.21117
500.00	0.20924
501.00	0.20730
502.00	0.20560
503.00	0.20396
504.00	0.20233
505.00	0.20070
506.00	0.19907
507.00	0.19743
508.00	0.19580
509.00	0.19417
510.00	0.19254
511.00	0.19090
512.00	0.18927
513.00	0.18764
514.00	0.18603
515.00	0.18442
516.00	0.18282
517.00	0.18121
518.00	0.17961
519.00	0.17800
520.00	0.17639
521.00	0.17479
522.00	0.17318
523.00	0.17158
524.00	0.16997
525.00	0.16836
526.00	0.16676
527.00	0.16515
528.00	0.16355
529.00	0.16224
530.00	0.16103
531.00	0.15981
532.00	0.15860
533.00	0.15739
534.00	0.15617
535.00	0.15496
536.00	0.15375
537.00	0.15253
538.00	0.15132
539.00	0.15011
540.00	0.14890
541.00	0.14768
542.00	0.14647
543.00	0.14526
544.00	0.14429
545.00	0.14332
546.00	0.14236
547.00	0.14140
548.00	0.14043
549.00	0.13947
550.00	0.13851
551.00	0.13755
552.00	0.13658
553.00	0.13562
554.00	0.13466
555.00	0.13369
556.00	0.13273
557.00	0.13185
558.00	0.13130
559.00	0.13074
560.00	0.13018
561.00	0.12963
562.00	0.12907
563.00	0.12851
564.00	0.12796
565.00	0.12740
566.00	0.12684
567.00	0.12629
568.00	0.12573
569.00	0.12517
570.00	0.12462
571.00	0.12412
572.00	0.12387
573.00	0.12362
574.00	0.12337
575.00	0.12312
576.00	0.12287
577.00	0.12262
578.00	0.12237
579.00	0.12212
580.00	0.12187
581.00	0.12162
582.00	0.12137
583.00	0.12112
584.00	0.12125
585.00	0.12153
586.00	0.12180
587.00	0.12207
588.00	0.12235
589.00	0.12262
590.00	0.12289
591.00	0.12317
592.00	0.12344
593.00	0.12371
594.00	0.12399
595.00	0.12426
596.00	0.12453
597.00	0.12481
598.00	0.12509
599.00	0.12538
600.00	0.12568
601.00	0.12598
602.00	0.12627
603.00	0.12657
604.00	0.12686
605.00	0.12716
606.00	0.12745
607.00	0.12775
608.00	0.12805
609.00	0.12834
610.00	0.12864
611.00	0.12893
612.00	0.12923
613.00	0.12952
614.00	0.13003
615.00	0.13066
616.00	0.13129
617.00	0.13192
618.00	0.13255
619.00	0.13318
620.00	0.13381
621.00	0.13444
622.00	0.13507
623.00	0.13570
624.00	0.13632
625.00	0.13695
626.00	0.13758
627.00	0.13821
628.00	0.13884
629.00	0.13947
630.00	0.13986
631.00	0.14004
632.00	0.14022
633.00	0.14040
634.00	0.14058
635.00	0.14075
636.00	0.14093
637.00	0.14111
638.00	0.14129
639.00	0.14147
640.00	0.14165
641.00	0.14183
642.00	0.14201
643.00	0.14219
644.00	0.14237
645.00	0.14255
646.00	0.14273
647.00	0.14293
648.00	0.14327
649.00	0.14361
650.00	0.14395
651.00	0.14429
652.00	0.14463
653.00	0.14497
654.00	0.14531
655.00	0.14565
656.00	0.14599
657.00	0.14633
658.00	0.14667
659.00	0.14701
660.00	0.14735
661.00	0.14769
662.00	0.14802
663.00	0.14836
664.00	0.14860
665.00	0.14883
666.00	0.14907
667.00	0.14931
668.00	0.14955
669.00	0.14979
670.00	0.15003
671.00	0.15026
672.00	0.15050
673.00	0.15074
674.00	0.15098
675.00	0.15122
676.00	0.15146
677.00	0.15170
678.00	0.15193
679.00	0.15217
680.00	0.15242
681.00	0.15268
682.00	0.15293
683.00	0.15319
684.00	0.15344
685.00	0.15370
686.00	0.15395
687.00	0.15421
688.00	0.15446
689.00	0.15471
690.00	0.15497
691.00	0.15522
692.00	0.15548
693.00	0.15573
694.00	0.15599
695.00	0.15636
696.00	0.15692
697.00	0.15748
698.00	0.15803
699.00	0.15859
700.00	0.15915
701.00	0.15970
702.00	0.16026
703.00	0.16082
704.00	0.16137
705.00	0.16193
706.00	0.16249
707.00	0.16304
708.00	0.16360
709.00	0.16423
710.00	0.16496
711.00	0.16570
712.00	0.16644
713.00	0.16717
714.00	0.16791
715.00	0.16864
716.00	0.16938
717.00	0.17012
718.00	0.17085
719.00	0.17159
720.00	0.17233
721.00	0.17306
722.00	0.17380
723.00	0.17438
724.00	0.17486
725.00	0.17535
726.00	0.17584
727.00	0.17633
728.00	0.17681
729.00	0.17730
730.00	0.17779
731.00	0.17828
732.00	0.17877
733.00	0.17943
734.00	0.18009
735.00	0.18075
736.00	0.18141
737.00	0.18207
738.00	0.18274
739.00	0.18340
740.00	0.18406
741.00	0.18472
742.00	0.18538
743.00	0.18604
744.00	0.18670
745.00	0.18735
746.00	0.18781
747.00	0.18827
748.00	0.18873
749.00	0.18918
750.00	0.18964
751.00	0.19010
752.00	0.19056
753.00	0.19101
754.00	0.19147
755.00	0.19193
756.00	0.19239
757.00	0.19282
758.00	0.19310
759.00	0.19337
760.00	0.19364
761.00	0.19391
762.00	0.19419
763.00	0.19446
764.00	0.19473
765.00	0.19501
766.00	0.19528
767.00	0.19484
768.00	0.19441
769.00	0.19397
770.00	0.19354
771.00	0.19310
772.00	0.19267
773.00	0.19223
774.00	0.19180
775.00	0.19136
776.00	0.19060
777.00	0.18969
778.00	0.18878
779.00	0.18787
780.00	0.18696
781.00	0.18605
782.00	0.18513
783.00	0.18422
784.00	0.18322
785.00	0.18163
786.00	0.18004
787.00	0.17845
788.00	0.17686
789.00	0.17527
790.00	0.17368
791.00	0.17209
792.00	0.17050
793.00	0.16888
794.00	0.16717
795.00	0.16547
796.00	0.16376
797.00	0.16206
798.00	0.16035
799.00	0.15865
800.00	0.15694
801.00	0.15524
802.00	0.15353
803.00	0.15150
804.00	0.14933
805.00	0.14716
806.00	0.14499
807.00	0.14282
808.00	0.14065
809.00	0.13848
810.00	0.13631
811.00	0.13414
812.00	0.13203
813.00	0.13003
814.00	0.12802
815.00	0.12602
816.00	0.12402
817.00	0.12202
818.00	0.12002
819.00	0.11801
820.00	0.11601
821.00	0.11401
822.00	0.11231
823.00	0.11060
824.00	0.10890
825.00	0.10719
826.00	0.10549
827.00	0.10378
828.00	0.10207
829.00	0.10037
830.00	0.098663
831.00	0.097010
832.00	0.095433
833.00	0.093855
834.00	0.092278
835.00	0.090700
836.00	0.089122
837.00	0.087545
838.00	0.085967
839.00	0.084390
840.00	0.082812
841.00	0.081247
842.00	0.080074
843.00	0.078902
844.00	0.077729
845.00	0.076557
846.00	0.075384
847.00	0.074211
848.00	0.073039
849.00	0.071866
850.00	0.070694
851.00	0.069521
852.00	0.068349
853.00	0.067176
854.00	0.066003
855.00	0.064831
856.00	0.063658
857.00	0.062485
858.00	0.061313
859.00	0.060140
860.00	0.058967
861.00	0.057795
862.00	0.056622
863.00	0.055739
864.00	0.054952
865.00	0.054165
866.00	0.053378
867.00	0.052591
868.00	0.051804
869.00	0.051018
870.00	0.050231
871.00	0.049444
872.00	0.048657
873.00	0.047870
874.00	0.047197
875.00	0.046544
876.00	0.045891
877.00	0.045238
878.00	0.044584
879.00	0.043931
880.00	0.043278
881.00	0.042625
882.00	0.041972
883.00	0.041319
884.00	0.040666
885.00	0.040013
886.00	0.039605
887.00	0.039222
888.00	0.038838
889.00	0.038455
890.00	0.038071
891.00	0.037688
892.00	0.037304
893.00	0.036921
894.00	0.036538
895.00	0.036154
896.00	0.035771
897.00	0.035387
898.00	0.034881
899.00	0.034324
900.00	0.033768
901.00	0.033211
902.00	0.032654
903.00	0.032098
904.00	0.031541
905.00	0.030985
906.00	0.030428
907.00	0.029871
908.00	0.029315
909.00	0.028758
910.00	0.028202
911.00	0.027645
912.00	0.027100
913.00	0.026559
914.00	0.026018
915.00	0.025477
916.00	0.024937
917.00	0.024396
918.00	0.023855
919.00	0.023315
920.00	0.022774
921.00	0.022233
922.00	0.021693
923.00	0.021152
924.00	0.020611
925.00	0.020208
926.00	0.019857
927.00	0.019507
928.00	0.019156
929.00	0.018805
930.00	0.018455
931.00	0.018104
932.00	0.017754
933.00	0.017403
934.00	0.017053
935.00	0.016702
936.00	0.016352
937.00	0.016001
938.00	0.015651
939.00	0.015300
940.00	0.014970
941.00	0.014755
942.00	0.014541
943.00	0.014326
944.00	0.014111
945.00	0.013897
946.00	0.013682
947.00	0.013468
948.00	0.013253
949.00	0.013039
950.00	0.012824
951.00	0.012609
952.00	0.012395
953.00	0.012180
954.00	0.011966
955.00	0.011751
956.00	0.011536
957.00	0.011322
958.00	0.011107
959.00	0.010939
960.00	0.010772
961.00	0.010605
962.00	0.010438
963.00	0.010272
964.00	0.010105
965.00	0.0099376
966.00	0.0097706
967.00	0.0096037
968.00	0.0094367
969.00	0.0092697
970.00	0.0091028
971.00	0.0089358
972.00	0.0087688
973.00	0.0086019
974.00	0.0084349
975.00	0.0082679
976.00	0.0081010
977.00	0.0079431
978.00	0.0078066
979.00	0.0076700
980.00	0.0075334
981.00	0.0073969
982.00	0.0072603
983.00	0.0071238
984.00	0.0069872
985.00	0.0068506
986.00	0.0067141
987.00	0.0065775
988.00	0.0064410
989.00	0.0063044
990.00	0.0061678
991.00	0.0060313
992.00	0.0058947
993.00	0.0057581
994.00	0.0056184
995.00	0.0054632
996.00	0.0053080
997.00	0.0051527
998.00	0.0049975
999.00	0.0048423
1000.0	0.0046870
1001.0	0.0045318
1002.0	0.0043766
1003.0	0.0042214
1004.0	0.0040661
1005.0	0.0039109
1006.0	0.0037557
1007.0	0.0036004
1008.0	0.0034452
1009.0	0.0032876
1010.0	0.0031083
1011.0	0.0029291
1012.0	0.0027498
1013.0	0.0025706
1014.0	0.0023913
1015.0	0.0022120
1016.0	0.0020328
1017.0	0.0018535
1018.0	0.0016743
1019.0	0.0014950
1020.0	0.0013158
1021.0	0.0011365
1022.0	0.00095726
1023.0	0.00077800
1024.0	0.00059875
1025.0	0.00041949
1026.0	0.00024024
1027.0	0.00018646
1028.0	0.00018646
1029.0	0.00018646
1030.0	0.00018646
1031.0	0.00018646
1032.0	0.00018646
1033.0	0.00018646
1034.0	0.00018646
1035.0	0.00018646
1036.0	0.00018646
1037.0	0.00018646
1038.0	0.00018646
1039.0	0.00018646
1040.0	0.00018646
1041.0	0.00018646
1042.0	0.00018646
1043.0	0.00018646
1044.0	0.00018646
1045.0	0.00018646
1046.0	0.00018646
1047.0	0.00018646
1048.0	0.00018646
1049.0	0.00018646
1050.0	0.00018646
1051.0	
1052.0	
1053.0	
1054.0	
1055.0	
1056.0	
1057.0	
1058.0	
1059.0	
1060.0	
1061.0	
1062.0	
1063.0	
1064.0	
1065.0	
1066.0	
1067.0	
1068.0	
1069.0	
1070.0	
1071.0	
1072.0	
1073.0	
1074.0	
1075.0	
1076.0	
1077.0	
1078.0	
1079.0	
1080.0	
1081.0	
1082.0	
1083.0	
1084.0	
1085.0	
1086.0	
1087.0	
1088.0	
1089.0	
1090.0	
1091.0	
1092.0	
1093.0	
1094.0	
1095.0	
1096.0	
1097.0	
1098.0	
1099.0	
1100.0	
1101.0	
1102.0	
1103.0	
1104.0	
1105.0	
1106.0	
1107.0	
1108.0	
1109.0	
1110.0	
1111.0	
1112.0	
1113.0	
1114.0	
1115.0	
1116.0	
1117.0	
1118.0	
1119.0	
1120.0	
1121.0	
1122.0	
1123.0	
1124.0	
1125.0	
1126.0	
1127.0	
1128.0	
1129.0	
1130.0	
1131.0	
1132.0	
1133.0	
1134.0	
1135.0	
1136.0	
1137.0	
1138.0	
1139.0	
1140.0	
1141.0	
1142.0	
1143.0	
1144.0	
1145.0	
1146.0	
1147.0	
1148.0	
1149.0	
1150.0	
1151.0	
1152.0	
1153.0	
1154.0	
1155.0	
1156.0	
1157.0	
1158.0	
1159.0	
1160.0	
1161.0	
1162.0	
1163.0	
1164.0	
1165.0	
1166.0	
1167.0	
1168.0	
1169.0	
1170.0	
1171.0	
1172.0	
1173.0	
1174.0	
1175.0	
1176.0	
1177.0	
1178.0	
1179.0	
1180.0	
1181.0	
1182.0	
1183.0	
1184.0	
1185.0	
1186.0	
1187.0	
1188.0	
1189.0	
1190.0	
1191.0	
1192.0	
1193.0	
1194.0	
1195.0	
1196.0	
1197.0	
1198.0	
1199.0	
1200.0	
