Wavelength (nm)	C08 abs e
275.00	7059.3
275.25	6655.1
275.50	6273.8
275.75	5963.6
276.00	5678.5
276.25	5398.6
276.50	5153.4
276.75	4933.3
277.00	4737.8
277.25	4549.1
277.50	4374.8
277.75	4201.1
278.00	4054.1
278.25	3902.3
278.50	3733.4
278.75	3619.2
279.00	3458.0
279.25	3353.0
279.50	3247.2
279.75	3146.7
280.00	3029.3
280.25	2933.8
280.50	2841.1
280.75	2734.4
281.00	2656.3
281.25	2553.0
281.50	2479.2
281.75	2411.1
282.00	2341.1
282.25	2275.4
282.50	2197.5
282.75	2141.4
283.00	2055.1
283.25	2019.9
283.50	1943.1
283.75	1879.2
284.00	1850.1
284.25	1776.5
284.50	1748.6
284.75	1675.6
285.00	1641.2
285.25	1605.1
285.50	1545.3
285.75	1523.7
286.00	1475.1
286.25	1429.6
286.50	1388.7
286.75	1357.1
287.00	1326.5
287.25	1315.0
287.50	1266.1
287.75	1239.3
288.00	1233.9
288.25	1177.8
288.50	1175.5
288.75	1126.2
289.00	1103.0
289.25	1078.9
289.50	1048.1
289.75	1027.9
290.00	1010.1
290.25	1001.8
290.50	950.52
290.75	947.57
291.00	911.34
291.25	896.59
291.50	867.09
291.75	865.89
292.00	843.68
292.25	819.80
292.50	802.29
292.75	764.58
293.00	781.08
293.25	740.43
293.50	725.22
293.75	728.26
294.00	690.28
294.25	687.33
294.50	671.20
294.75	653.13
295.00	656.54
295.25	630.08
295.50	613.49
295.75	607.68
296.00	590.26
296.25	576.99
296.50	556.61
296.75	564.73
297.00	538.54
297.25	517.62
297.50	519.19
297.75	491.90
298.00	484.80
298.25	470.24
298.50	471.62
298.75	457.98
299.00	441.66
299.25	445.90
299.50	435.57
299.75	436.31
300.00	440.64
300.25	430.41
300.50	428.48
300.75	437.69
301.00	416.49
301.25	422.85
301.50	421.93
301.75	413.63
302.00	414.28
302.25	427.92
302.50	434.84
302.75	436.04
303.00	434.19
303.25	427.46
303.50	429.67
303.75	438.52
304.00	470.70
304.25	447.37
304.50	452.91
304.75	447.47
305.00	457.70
305.25	466.83
305.50	471.90
305.75	481.57
306.00	491.35
306.25	489.32
306.50	510.98
306.75	495.77
307.00	498.44
307.25	503.88
307.50	501.67
307.75	521.49
308.00	512.18
308.25	524.63
308.50	528.13
308.75	522.50
309.00	525.55
309.25	540.39
309.50	565.19
309.75	514.76
310.00	628.15
310.25	575.33
310.50	597.54
310.75	588.42
311.00	532.09
311.25	546.10
311.50	666.77
311.75	604.73
312.00	617.82
312.25	670.19
312.50	699.32
312.75	664.19
313.00	688.07
313.25	678.85
313.50	699.13
313.75	681.25
314.00	758.96
314.25	727.06
314.50	793.07
314.75	836.86
315.00	817.77
315.25	860.27
315.50	847.46
315.75	927.57
316.00	966.84
316.25	1033.1
316.50	1006.2
316.75	1045.7
317.00	1055.3
317.25	1108.9
317.50	1099.7
317.75	1160.1
318.00	1192.1
318.25	1217.5
318.50	1176.4
318.75	1242.4
319.00	1267.5
319.25	1352.1
319.50	1330.3
319.75	1324.1
320.00	1367.3
320.25	1371.4
320.50	1401.8
320.75	1382.6
321.00	1451.4
321.25	1456.4
321.50	1423.1
321.75	1549.8
322.00	1472.0
322.25	1539.9
322.50	1520.6
322.75	1532.5
323.00	1558.7
323.25	1540.5
323.50	1578.2
323.75	1507.2
324.00	1540.3
324.25	1528.7
324.50	1533.8
324.75	1534.1
325.00	1563.4
325.25	1563.5
325.50	1570.4
325.75	1629.5
326.00	1579.7
326.25	1609.5
326.50	1603.4
326.75	1642.5
327.00	1745.8
327.25	1723.3
327.50	1727.7
327.75	1805.5
328.00	1812.4
328.25	1776.6
328.50	1879.9
328.75	1961.5
329.00	1947.3
329.25	2026.9
329.50	2100.4
329.75	2089.7
330.00	2248.0
330.25	2199.8
330.50	2270.8
330.75	2388.8
331.00	2524.9
331.25	2556.9
331.50	2564.0
331.75	2647.0
332.00	2722.7
332.25	2826.5
332.50	2821.0
332.75	3031.1
333.00	3015.9
333.25	3085.4
333.50	3134.8
333.75	3293.3
334.00	3332.7
334.25	3424.2
334.50	3414.3
334.75	3574.0
335.00	3510.1
335.25	3600.5
335.50	3672.4
335.75	3706.4
336.00	3783.8
336.25	3772.1
336.50	3833.1
336.75	3873.3
337.00	3892.1
337.25	3978.5
337.50	3968.9
337.75	3939.2
338.00	4018.6
338.25	4004.0
338.50	4033.4
338.75	3954.5
339.00	3968.3
339.25	3976.1
339.50	3881.5
339.75	3920.4
340.00	3874.2
340.25	3868.3
340.50	3829.6
340.75	3787.0
341.00	3793.5
341.25	3773.2
341.50	3778.9
341.75	3744.5
342.00	3752.0
342.25	3712.8
342.50	3727.8
342.75	3701.4
343.00	3745.4
343.25	3744.2
343.50	3824.8
343.75	3833.0
344.00	3946.3
344.25	3909.6
344.50	3985.1
344.75	4023.8
345.00	4104.3
345.25	4252.9
345.50	4308.3
345.75	4368.8
346.00	4427.8
346.25	4596.4
346.50	4664.9
346.75	4821.3
347.00	4996.1
347.25	5108.9
347.50	5269.4
347.75	5381.4
348.00	5525.8
348.25	5684.4
348.50	5875.5
348.75	6062.4
349.00	6162.6
349.25	6394.1
349.50	6539.6
349.75	6689.5
350.00	6894.5
350.25	7047.3
350.50	7278.6
350.75	7397.8
351.00	7531.7
351.25	7790.6
351.50	7864.4
351.75	8081.9
352.00	8150.6
352.25	8310.2
352.50	8413.4
352.75	8492.0
353.00	8597.1
353.25	8636.3
353.50	8665.5
353.75	8690.6
354.00	8740.0
354.25	8718.6
354.50	8705.7
354.75	8699.4
355.00	8596.5
355.25	8626.5
355.50	8515.2
355.75	8470.0
356.00	8312.2
356.25	8227.6
356.50	8193.7
356.75	8106.0
357.00	7936.1
357.25	7832.4
357.50	7688.0
357.75	7624.4
358.00	7472.3
358.25	7334.0
358.50	7295.0
358.75	7146.4
359.00	7062.9
359.25	6913.7
359.50	6821.5
359.75	6731.4
360.00	6675.9
360.25	6604.3
360.50	6509.1
360.75	6491.8
361.00	6435.3
361.25	6399.5
361.50	6334.4
361.75	6347.8
362.00	6357.5
362.25	6365.5
362.50	6416.1
362.75	6431.5
363.00	6538.2
363.25	6561.5
363.50	6732.6
363.75	6777.2
364.00	6862.2
364.25	6993.2
364.50	7161.8
364.75	7367.2
365.00	7481.7
365.25	7674.9
365.50	7816.0
365.75	8036.6
366.00	8183.9
366.25	8382.6
366.50	8576.8
366.75	8803.8
367.00	9023.4
367.25	9296.8
367.50	9593.3
367.75	9801.9
368.00	10133
368.25	10389
368.50	10689
368.75	11054
369.00	11290
369.25	11630
369.50	11935
369.75	12205
370.00	12542
370.25	12782
370.50	13014
370.75	13270
371.00	13352
371.25	13617
371.50	13707
371.75	13764
372.00	13875
372.25	13867
372.50	14000
372.75	13929
373.00	13870
373.25	13817
373.50	13766
373.75	13664
374.00	13514
374.25	13457
374.50	13307
374.75	13274
375.00	13209
375.25	12988
375.50	12849
375.75	12552
376.00	12408
376.25	12107
376.50	11863
376.75	11598
377.00	11271
377.25	11031
377.50	10722
377.75	10433
378.00	10183
378.25	9924.5
378.50	9614.6
378.75	9373.2
379.00	9109.3
379.25	8894.9
379.50	8627.4
379.75	8297.7
380.00	8120.0
380.25	7893.3
380.50	7663.9
380.75	7497.1
381.00	7370.7
381.25	7159.3
381.50	7016.8
381.75	6953.1
382.00	6837.0
382.25	6770.4
382.50	6742.0
382.75	6696.9
383.00	6680.6
383.25	6696.0
383.50	6724.2
383.75	6764.5
384.00	6848.5
384.25	6934.1
384.50	6987.2
384.75	7021.8
385.00	7126.4
385.25	7272.6
385.50	7329.3
385.75	7468.6
386.00	7617.9
386.25	7713.9
386.50	7871.2
386.75	8030.5
387.00	8200.2
387.25	8358.0
387.50	8581.0
387.75	8859.3
388.00	9062.5
388.25	9313.9
388.50	9549.7
388.75	9874.4
389.00	10235
389.25	10602
389.50	10875
389.75	11174
390.00	11476
390.25	11831
390.50	12125
390.75	12371
391.00	12570
391.25	12768
391.50	12972
391.75	13124
392.00	13191
392.25	13400
392.50	13353
392.75	13385
393.00	13346
393.25	13304
393.50	13224
393.75	13203
394.00	13008
394.25	12984
394.50	12791
394.75	12612
395.00	12394
395.25	12085
395.50	11833
395.75	11525
396.00	11284
396.25	10972
396.50	10694
396.75	10423
397.00	10181
397.25	9859.5
397.50	9527.2
397.75	9280.9
398.00	8950.8
398.25	8680.5
398.50	8389.6
398.75	8059.9
399.00	7757.4
399.25	7474.2
399.50	7158.3
399.75	6845.6
400.00	6591.0
400.25	6304.3
400.50	6011.6
400.75	5761.9
401.00	5499.9
401.25	5252.6
401.50	5022.0
401.75	4787.0
402.00	4548.7
402.25	4315.9
402.50	4114.1
402.75	3887.1
403.00	3708.7
403.25	3491.6
403.50	3297.4
403.75	3129.7
404.00	2980.4
404.25	2782.7
404.50	2630.9
404.75	2494.3
405.00	2355.6
405.25	2202.4
405.50	2093.7
405.75	1958.2
406.00	1841.4
406.25	1773.1
406.50	1663.3
406.75	1552.5
407.00	1452.5
407.25	1341.2
407.50	1279.9
407.75	1177.4
408.00	1134.7
408.25	1032.8
408.50	1004.2
408.75	947.39
409.00	863.04
409.25	817.40
409.50	785.14
409.75	743.66
410.00	670.09
410.25	652.12
410.50	606.39
410.75	558.27
411.00	545.18
411.25	491.62
411.50	481.94
411.75	475.77
412.00	422.58
412.25	396.30
412.50	340.81
412.75	361.09
413.00	341.82
413.25	338.32
413.50	295.82
413.75	265.40
414.00	255.08
414.25	257.38
414.50	259.78
414.75	243.92
415.00	213.78
415.25	209.54
415.50	189.90
415.75	186.40
416.00	196.26
416.25	170.82
416.50	171.10
416.75	158.10
417.00	121.22
417.25	132.84
417.50	128.78
417.75	140.77
418.00	107.03
418.25	99.929
418.50	99.099
418.75	113.30
419.00	102.88
419.25	96.979
419.50	94.766
419.75	92.554
420.00	89.973
420.25	75.776
420.50	70.061
420.75	78.910
421.00	56.970
421.25	62.778
421.50	52.453
421.75	77.804
422.00	57.155
422.25	56.602
422.50	45.539
422.75	46.185
423.00	33.094
423.25	39.824
423.50	44.618
423.75	69.415
424.00	30.974
424.25	34.201
424.50	52.085
424.75	23.231
425.00	50.149
425.25	31.159
425.50	32.910
425.75	51.255
426.00	35.952
426.25	25.535
426.50	42.589
426.75	18.990
427.00	27.932
427.25	30.974
427.50	32.265
427.75	27.102
428.00	48.028
428.25	16.040
428.50	22.493
428.75	9.4029
429.00	38.257
429.25	22.124
429.50	18.898
429.75	35.215
430.00	21.387
430.25	38.718
430.50	31.159
430.75	39.824
431.00	49.780
431.25	53.099
431.50	15.395
431.75	14.473
432.00	10.048
432.25	24.706
432.50	20.281
432.75	25.351
433.00	26.549
433.25	21.387
433.50	33.740
433.75	30.145
434.00	20.649
434.25	7.4670
434.50	14.473
434.75	14.381
435.00	22.954
435.25	45.632
435.50	28.854
435.75	25.996
436.00	25.627
436.25	29.315
436.50	22.954
436.75	14.934
437.00	23.323
437.25	17.976
437.50	23.138
437.75	17.884
438.00	25.627
438.25	17.239
438.50	20.281
438.75	27.932
439.00	13.551
439.25	15.395
439.50	20.096
439.75	27.102
440.00	38.810
440.25	15.948
440.50	10.878
440.75	26.641
441.00	47.107
441.25	17.423
441.50	14.565
441.75	12.353
442.00	16.132
442.25	14.196
442.50	23.046
442.75	38.902
443.00	17.146
443.25	17.700
443.50	16.132
443.75	26.549
444.00	31.988
444.25	28.209
444.50	28.762
444.75	20.189
445.00	19.359
445.25	17.146
445.50	24.337
445.75	32.265
446.00	31.435
446.25	18.068
446.50	27.287
446.75	14.565
447.00	34.662
447.25	28.393
447.50	11.800
447.75	13.920
448.00	27.563
448.25	15.487
448.50	16.225
448.75	19.635
449.00	23.415
449.25	25.074
449.50	11.615
449.75	26.641
450.00	33.924
450.25	29.776
450.50	19.543
450.75	33.187
451.00	40.377
451.25	20.189
451.50	17.884
451.75	18.068
452.00	24.245
452.25	20.557
452.50	16.962
452.75	16.962
453.00	1.0140
453.25	26.457
453.50	8.6654
453.75	19.543
454.00	7.6514
454.25	31.896
454.50	24.613
454.75	8.2967
455.00	12.537
455.25	29.407
455.50	21.848
455.75	20.926
456.00	31.988
456.25	20.465
456.50	34.201
456.75	14.196
457.00	6.3608
457.25	33.832
457.50	14.381
457.75	13.275
458.00	6.1764
458.25	8.4810
458.50	9.8638
458.75	17.884
459.00	27.471
459.25	20.281
459.50	17.607
459.75	19.820
460.00	20.465
460.25	20.281
460.50	15.487
460.75	16.409
461.00	18.806
461.25	18.990
461.50	16.501
461.75	10.693
462.00	10.786
462.25	14.381
462.50	11.339
462.75	21.940
463.00	23.784
463.25	11.800
463.50	24.890
463.75	22.954
464.00	10.140
464.25	15.948
464.50	20.557
464.75	12.445
465.00	26.826
465.25	18.345
465.50	24.890
465.75	9.6794
466.00	26.273
466.25	16.409
466.50	7.0982
466.75	21.756
467.00	6.7295
467.25	43.235
467.50	1.6593
467.75	25.167
468.00	15.026
468.25	20.649
468.50	1.5671
468.75	6.2686
469.00	35.399
469.25	10.509
469.50	12.445
469.75	7.4670
470.00	13.182
470.25	7.4670
470.50	29.130
470.75	7.0982
471.00	31.712
471.25	6.3608
471.50	28.946
471.75	25.535
472.00	23.046
472.25	23.415
472.50	21.571
472.75	17.607
473.00	20.649
473.25	23.876
473.50	13.090
473.75	13.459
474.00	26.826
474.25	23.507
474.50	45.539
474.75	16.870
475.00	5.7155
475.25	18.529
475.50	12.168
475.75	26.088
476.00	20.649
476.25	19.451
476.50	6.3608
476.75	16.409
477.00	0.92185
477.25	14.842
477.50	17.976
477.75	14.104
478.00	21.479
478.25	17.515
478.50	18.529
478.75	7.6514
479.00	10.233
479.25	7.3748
479.50	22.585
479.75	20.557
480.00	36.597
480.25	21.387
480.50	8.6654
480.75	15.487
481.00	19.359
481.25	6.9139
481.50	21.387
481.75	29.407
482.00	24.152
482.25	17.792
482.50	10.601
482.75	13.459
483.00	10.233
483.25	20.281
483.50	10.970
483.75	17.515
484.00	22.585
484.25	4.8858
484.50	49.227
484.75	13.459
485.00	14.196
485.25	10.693
485.50	7.9279
485.75	39.179
486.00	19.359
486.25	51.716
486.50	13.367
486.75	40.285
487.00	16.870
487.25	3.8718
487.50	20.926
487.75	4.5171
488.00	18.160
488.25	5.8998
488.50	20.189
488.75	31.159
489.00	30.974
489.25	3.0421
489.50	12.537
489.75	31.619
490.00	17.054
490.25	23.692
490.50	6.3608
490.75	12.353
491.00	26.181
491.25	10.509
491.50	31.804
491.75	20.649
492.00	16.685
492.25	11.523
492.50	8.3888
492.75	31.988
493.00	24.060
493.25	10.509
493.50	10.601
493.75	33.371
494.00	23.138
494.25	33.279
494.50	12.537
494.75	23.231
495.00	21.756
495.25	21.295
495.50	28.577
495.75	34.293
496.00	15.026
496.25	27.563
496.50	16.501
496.75	8.5732
497.00	14.565
497.25	30.145
497.50	5.1180
497.75	13.459
498.00	9.7716
498.25	4.7014
498.50	21.387
498.75	20.373
499.00	9.2185
499.25	23.692
499.50	30.145
499.75	12.076
500.00	34.016
