Wavelength (nm)	"86, JHC 2003_707, 1a DMSO"
200.00	
201.00	
202.00	
203.00	
204.00	
205.00	
206.00	
207.00	
208.00	
209.00	
210.00	
211.00	
212.00	
213.00	
214.00	
215.00	
216.00	
217.00	
218.00	
219.00	
220.00	
221.00	
222.00	
223.00	
224.00	
225.00	
226.00	
227.00	
228.00	
229.00	
230.00	
231.00	
232.00	
233.00	
234.00	
235.00	
236.00	
237.00	
238.00	
239.00	
240.00	
241.00	
242.00	
243.00	
244.00	
245.00	
246.00	
247.00	
248.00	
249.00	
250.00	
251.00	
252.00	
253.00	
254.00	
255.00	
256.00	
257.00	
258.00	
259.00	
260.00	
261.00	
262.00	
263.00	
264.00	
265.00	
266.00	
267.00	
268.00	
269.00	
270.00	
271.00	
272.00	
273.00	
274.00	
275.00	
276.00	
277.00	
278.00	
279.00	
280.00	
281.00	
282.00	
283.00	
284.00	
285.00	
286.00	
287.00	
288.00	
289.00	
290.00	
291.00	
292.00	
293.00	
294.00	
295.00	
296.00	
297.00	
298.00	
299.00	
300.00	0.71769
301.00	0.70332
302.00	0.68702
303.00	0.66491
304.00	0.64908
305.00	0.63395
306.00	0.61727
307.00	0.59441
308.00	0.57361
309.00	0.55742
310.00	0.54123
311.00	0.52647
312.00	0.51434
313.00	0.50222
314.00	0.49041
315.00	0.48115
316.00	0.47189
317.00	0.46315
318.00	0.45755
319.00	0.45196
320.00	0.44636
321.00	0.44197
322.00	0.43769
323.00	0.43341
324.00	0.42913
325.00	0.42539
326.00	0.42282
327.00	0.42024
328.00	0.41766
329.00	0.41508
330.00	0.41250
331.00	0.41026
332.00	0.40832
333.00	0.40638
334.00	0.40444
335.00	0.40250
336.00	0.40056
337.00	0.39839
338.00	0.39618
339.00	0.39397
340.00	0.39176
341.00	0.39016
342.00	0.38859
343.00	0.38701
344.00	0.38678
345.00	0.38818
346.00	0.38957
347.00	0.39100
348.00	0.39271
349.00	0.39441
350.00	0.39615
351.00	0.39790
352.00	0.39966
353.00	0.40141
354.00	0.40171
355.00	0.40150
356.00	0.40129
357.00	0.40109
358.00	0.40168
359.00	0.40230
360.00	0.40293
361.00	0.40386
362.00	0.40614
363.00	0.40842
364.00	0.41093
365.00	0.41565
366.00	0.42038
367.00	0.42511
368.00	0.42984
369.00	0.43658
370.00	0.44392
371.00	0.45126
372.00	0.45871
373.00	0.46694
374.00	0.47518
375.00	0.48341
376.00	0.49164
377.00	0.49884
378.00	0.50519
379.00	0.51154
380.00	0.51789
381.00	0.52424
382.00	0.53059
383.00	0.53758
384.00	0.54498
385.00	0.55238
386.00	0.55978
387.00	0.56718
388.00	0.57650
389.00	0.58700
390.00	0.59751
391.00	0.60801
392.00	0.61941
393.00	0.63146
394.00	0.64352
395.00	0.65557
396.00	0.66913
397.00	0.68308
398.00	0.69702
399.00	0.70740
400.00	0.71626
401.00	0.72512
402.00	0.73233
403.00	0.73621
404.00	0.74009
405.00	0.73960
406.00	0.73863
407.00	0.73653
408.00	0.73320
409.00	0.73055
410.00	0.72837
411.00	0.72619
412.00	0.72467
413.00	0.72439
414.00	0.72411
415.00	0.72528
416.00	0.72778
417.00	0.73028
418.00	0.73470
419.00	0.74000
420.00	0.74530
421.00	0.75059
422.00	0.75643
423.00	0.76399
424.00	0.77155
425.00	0.77911
426.00	0.78666
427.00	0.79412
428.00	0.80130
429.00	0.80848
430.00	0.81566
431.00	0.82284
432.00	0.83002
433.00	0.83683
434.00	0.84318
435.00	0.84954
436.00	0.85589
437.00	0.86224
438.00	0.86859
439.00	0.87535
440.00	0.88272
441.00	0.89010
442.00	0.89748
443.00	0.90486
444.00	0.91223
445.00	0.91986
446.00	0.92801
447.00	0.93615
448.00	0.94430
449.00	0.95265
450.00	0.96152
451.00	0.97039
452.00	0.97891
453.00	0.98572
454.00	0.99253
455.00	0.99729
456.00	1.0000
457.00	0.99924
458.00	0.99765
459.00	0.99330
460.00	0.98896
461.00	0.98084
462.00	0.97253
463.00	0.96422
464.00	0.95524
465.00	0.94298
466.00	0.93073
467.00	0.91848
468.00	0.90621
469.00	0.89380
470.00	0.88140
471.00	0.86899
472.00	0.85659
473.00	0.84418
474.00	0.83199
475.00	0.81980
476.00	0.80761
477.00	0.79542
478.00	0.78323
479.00	0.77095
480.00	0.75829
481.00	0.74563
482.00	0.73297
483.00	0.72031
484.00	0.70765
485.00	0.69499
486.00	0.68233
487.00	0.66950
488.00	0.65638
489.00	0.64327
490.00	0.63016
491.00	0.61705
492.00	0.60393
493.00	0.59082
494.00	0.57859
495.00	0.56785
496.00	0.55711
497.00	0.54637
498.00	0.53563
499.00	0.52550
500.00	0.51723
501.00	0.50896
502.00	0.50069
503.00	0.49251
504.00	0.48547
505.00	0.47844
506.00	0.47141
507.00	0.46457
508.00	0.45875
509.00	0.45293
510.00	0.44711
511.00	0.44074
512.00	0.43408
513.00	0.42742
514.00	0.41802
515.00	0.40803
516.00	0.39803
517.00	0.38281
518.00	0.36754
519.00	0.35226
520.00	0.33699
521.00	0.32172
522.00	0.30316
523.00	0.28460
524.00	0.26604
525.00	0.24751
526.00	0.22903
527.00	0.21056
528.00	0.19208
529.00	0.17360
530.00	0.15776
531.00	0.14341
532.00	0.12905
533.00	0.11470
534.00	0.10262
535.00	0.092131
536.00	0.081640
537.00	0.071703
538.00	0.063723
539.00	0.055744
540.00	0.050201
541.00	0.045912
542.00	0.041624
543.00	0.037335
544.00	0.033163
545.00	0.030329
546.00	0.027495
547.00	0.024661
548.00	0.021827
549.00	0.019114
550.00	0.017620
551.00	0.016127
552.00	0.014633
553.00	0.013139
554.00	0.011646
555.00	0.010524
556.00	0.0094785
557.00	0.0084328
558.00	0.0073872
559.00	0.0063415
560.00	0.0056094
561.00	0.0051137
562.00	0.0046180
563.00	0.0041223
564.00	0.0036266
565.00	0.0031310
566.00	0.0026748
567.00	0.0023511
568.00	0.0020273
569.00	0.0017036
570.00	0.0013798
571.00	0.0010561
572.00	0.00073230
573.00	0.00040855
574.00	0.00039236
575.00	0.00039236
576.00	0.00039236
577.00	0.00039236
578.00	0.00039236
579.00	0.00039236
580.00	0.00039236
581.00	0.00039236
582.00	0.00039236
583.00	0.00039236
584.00	0.00039236
585.00	0.00039236
586.00	0.00039236
587.00	0.00039236
588.00	0.00039236
589.00	0.00039236
590.00	0.00039236
591.00	0.00039236
592.00	0.00039236
593.00	0.00039236
594.00	0.00039236
595.00	0.00039236
596.00	0.00039236
597.00	0.00039236
598.00	0.00039236
599.00	0.00039236
600.00	0.00039236
601.00	
602.00	
603.00	
604.00	
605.00	
606.00	
607.00	
608.00	
609.00	
610.00	
611.00	
612.00	
613.00	
614.00	
615.00	
616.00	
617.00	
618.00	
619.00	
620.00	
621.00	
622.00	
623.00	
624.00	
625.00	
626.00	
627.00	
628.00	
629.00	
630.00	
631.00	
632.00	
633.00	
634.00	
635.00	
636.00	
637.00	
638.00	
639.00	
640.00	
641.00	
642.00	
643.00	
644.00	
645.00	
646.00	
647.00	
648.00	
649.00	
650.00	
651.00	
652.00	
653.00	
654.00	
655.00	
656.00	
657.00	
658.00	
659.00	
660.00	
661.00	
662.00	
663.00	
664.00	
665.00	
666.00	
667.00	
668.00	
669.00	
670.00	
671.00	
672.00	
673.00	
674.00	
675.00	
676.00	
677.00	
678.00	
679.00	
680.00	
681.00	
682.00	
683.00	
684.00	
685.00	
686.00	
687.00	
688.00	
689.00	
690.00	
691.00	
692.00	
693.00	
694.00	
695.00	
696.00	
697.00	
698.00	
699.00	
700.00	
701.00	
702.00	
703.00	
704.00	
705.00	
706.00	
707.00	
708.00	
709.00	
710.00	
711.00	
712.00	
713.00	
714.00	
715.00	
716.00	
717.00	
718.00	
719.00	
720.00	
721.00	
722.00	
723.00	
724.00	
725.00	
726.00	
727.00	
728.00	
729.00	
730.00	
731.00	
732.00	
733.00	
734.00	
735.00	
736.00	
737.00	
738.00	
739.00	
740.00	
741.00	
742.00	
743.00	
744.00	
745.00	
746.00	
747.00	
748.00	
749.00	
750.00	
751.00	
752.00	
753.00	
754.00	
755.00	
756.00	
757.00	
758.00	
759.00	
760.00	
761.00	
762.00	
763.00	
764.00	
765.00	
766.00	
767.00	
768.00	
769.00	
770.00	
771.00	
772.00	
773.00	
774.00	
775.00	
776.00	
777.00	
778.00	
779.00	
780.00	
781.00	
782.00	
783.00	
784.00	
785.00	
786.00	
787.00	
788.00	
789.00	
790.00	
791.00	
792.00	
793.00	
794.00	
795.00	
796.00	
797.00	
798.00	
799.00	
800.00	
801.00	
802.00	
803.00	
804.00	
805.00	
806.00	
807.00	
808.00	
809.00	
810.00	
811.00	
812.00	
813.00	
814.00	
815.00	
816.00	
817.00	
818.00	
819.00	
820.00	
821.00	
822.00	
823.00	
824.00	
825.00	
826.00	
827.00	
828.00	
829.00	
830.00	
831.00	
832.00	
833.00	
834.00	
835.00	
836.00	
837.00	
838.00	
839.00	
840.00	
841.00	
842.00	
843.00	
844.00	
845.00	
846.00	
847.00	
848.00	
849.00	
850.00	
851.00	
852.00	
853.00	
854.00	
855.00	
856.00	
857.00	
858.00	
859.00	
860.00	
861.00	
862.00	
863.00	
864.00	
865.00	
866.00	
867.00	
868.00	
869.00	
870.00	
871.00	
872.00	
873.00	
874.00	
875.00	
876.00	
877.00	
878.00	
879.00	
880.00	
881.00	
882.00	
883.00	
884.00	
885.00	
886.00	
887.00	
888.00	
889.00	
890.00	
891.00	
892.00	
893.00	
894.00	
895.00	
896.00	
897.00	
898.00	
899.00	
900.00	
901.00	
902.00	
903.00	
904.00	
905.00	
906.00	
907.00	
908.00	
909.00	
910.00	
911.00	
912.00	
913.00	
914.00	
915.00	
916.00	
917.00	
918.00	
919.00	
920.00	
921.00	
922.00	
923.00	
924.00	
925.00	
926.00	
927.00	
928.00	
929.00	
930.00	
931.00	
932.00	
933.00	
934.00	
935.00	
936.00	
937.00	
938.00	
939.00	
940.00	
941.00	
942.00	
943.00	
944.00	
945.00	
946.00	
947.00	
948.00	
949.00	
950.00	
951.00	
952.00	
953.00	
954.00	
955.00	
956.00	
957.00	
958.00	
959.00	
960.00	
961.00	
962.00	
963.00	
964.00	
965.00	
966.00	
967.00	
968.00	
969.00	
970.00	
971.00	
972.00	
973.00	
974.00	
975.00	
976.00	
977.00	
978.00	
979.00	
980.00	
981.00	
982.00	
983.00	
984.00	
985.00	
986.00	
987.00	
988.00	
989.00	
990.00	
991.00	
992.00	
993.00	
994.00	
995.00	
996.00	
997.00	
998.00	
999.00	
1000.0	
1001.0	
1002.0	
1003.0	
1004.0	
1005.0	
1006.0	
1007.0	
1008.0	
1009.0	
1010.0	
1011.0	
1012.0	
1013.0	
1014.0	
1015.0	
1016.0	
1017.0	
1018.0	
1019.0	
1020.0	
1021.0	
1022.0	
1023.0	
1024.0	
1025.0	
1026.0	
1027.0	
1028.0	
1029.0	
1030.0	
1031.0	
1032.0	
1033.0	
1034.0	
1035.0	
1036.0	
1037.0	
1038.0	
1039.0	
1040.0	
1041.0	
1042.0	
1043.0	
1044.0	
1045.0	
1046.0	
1047.0	
1048.0	
1049.0	
1050.0	
1051.0	
1052.0	
1053.0	
1054.0	
1055.0	
1056.0	
1057.0	
1058.0	
1059.0	
1060.0	
1061.0	
1062.0	
1063.0	
1064.0	
1065.0	
1066.0	
1067.0	
1068.0	
1069.0	
1070.0	
1071.0	
1072.0	
1073.0	
1074.0	
1075.0	
1076.0	
1077.0	
1078.0	
1079.0	
1080.0	
1081.0	
1082.0	
1083.0	
1084.0	
1085.0	
1086.0	
1087.0	
1088.0	
1089.0	
1090.0	
1091.0	
1092.0	
1093.0	
1094.0	
1095.0	
1096.0	
1097.0	
1098.0	
1099.0	
1100.0	
1101.0	
1102.0	
1103.0	
1104.0	
1105.0	
1106.0	
1107.0	
1108.0	
1109.0	
1110.0	
1111.0	
1112.0	
1113.0	
1114.0	
1115.0	
1116.0	
1117.0	
1118.0	
1119.0	
1120.0	
1121.0	
1122.0	
1123.0	
1124.0	
1125.0	
1126.0	
1127.0	
1128.0	
1129.0	
1130.0	
1131.0	
1132.0	
1133.0	
1134.0	
1135.0	
1136.0	
1137.0	
1138.0	
1139.0	
1140.0	
1141.0	
1142.0	
1143.0	
1144.0	
1145.0	
1146.0	
1147.0	
1148.0	
1149.0	
1150.0	
1151.0	
1152.0	
1153.0	
1154.0	
1155.0	
1156.0	
1157.0	
1158.0	
1159.0	
1160.0	
1161.0	
1162.0	
1163.0	
1164.0	
1165.0	
1166.0	
1167.0	
1168.0	
1169.0	
1170.0	
1171.0	
1172.0	
1173.0	
1174.0	
1175.0	
1176.0	
1177.0	
1178.0	
1179.0	
1180.0	
1181.0	
1182.0	
1183.0	
1184.0	
1185.0	
1186.0	
1187.0	
1188.0	
1189.0	
1190.0	
1191.0	
1192.0	
1193.0	
1194.0	
1195.0	
1196.0	
1197.0	
1198.0	
1199.0	
1200.0	
