Wavelength (nm)	"63, Inorg Chem 2001_5585, F2A"
200.00	
201.00	
202.00	
203.00	
204.00	
205.00	
206.00	
207.00	
208.00	
209.00	
210.00	
211.00	
212.00	
213.00	
214.00	
215.00	
216.00	
217.00	
218.00	
219.00	
220.00	
221.00	
222.00	
223.00	
224.00	
225.00	
226.00	
227.00	
228.00	
229.00	
230.00	
231.00	
232.00	
233.00	
234.00	
235.00	
236.00	
237.00	
238.00	
239.00	
240.00	
241.00	
242.00	
243.00	
244.00	
245.00	
246.00	
247.00	
248.00	
249.00	
250.00	
251.00	
252.00	
253.00	
254.00	
255.00	
256.00	
257.00	
258.00	
259.00	
260.00	
261.00	
262.00	
263.00	
264.00	
265.00	
266.00	
267.00	
268.00	
269.00	
270.00	
271.00	
272.00	
273.00	
274.00	
275.00	
276.00	
277.00	
278.00	
279.00	
280.00	
281.00	
282.00	
283.00	
284.00	
285.00	
286.00	
287.00	
288.00	
289.00	
290.00	
291.00	
292.00	
293.00	
294.00	
295.00	
296.00	
297.00	
298.00	
299.00	
300.00	0.27678
301.00	0.27793
302.00	0.27907
303.00	0.28001
304.00	0.28060
305.00	0.28119
306.00	0.28178
307.00	0.28238
308.00	0.28297
309.00	0.28370
310.00	0.28473
311.00	0.28576
312.00	0.28679
313.00	0.28782
314.00	0.28885
315.00	0.29025
316.00	0.29180
317.00	0.29334
318.00	0.29489
319.00	0.29644
320.00	0.29809
321.00	0.30049
322.00	0.30288
323.00	0.30528
324.00	0.30768
325.00	0.31007
326.00	0.31247
327.00	0.31654
328.00	0.32098
329.00	0.32543
330.00	0.32987
331.00	0.33486
332.00	0.33990
333.00	0.34494
334.00	0.34998
335.00	0.35518
336.00	0.36259
337.00	0.37001
338.00	0.37742
339.00	0.38484
340.00	0.39375
341.00	0.40330
342.00	0.41286
343.00	0.42241
344.00	0.43251
345.00	0.44371
346.00	0.45491
347.00	0.46612
348.00	0.47732
349.00	0.49200
350.00	0.50681
351.00	0.52163
352.00	0.53645
353.00	0.55182
354.00	0.56731
355.00	0.58280
356.00	0.59829
357.00	0.61636
358.00	0.63748
359.00	0.65859
360.00	0.67975
361.00	0.70170
362.00	0.72366
363.00	0.74562
364.00	0.76661
365.00	0.78623
366.00	0.80585
367.00	0.82546
368.00	0.84537
369.00	0.86555
370.00	0.88572
371.00	0.90590
372.00	0.92106
373.00	0.93553
374.00	0.95001
375.00	0.96448
376.00	0.97686
377.00	0.98925
378.00	0.99635
379.00	0.99818
380.00	1.0000
381.00	0.99739
382.00	0.99477
383.00	0.99216
384.00	0.98156
385.00	0.97096
386.00	0.94996
387.00	0.92896
388.00	0.90796
389.00	0.87918
390.00	0.84935
391.00	0.81951
392.00	0.79071
393.00	0.76195
394.00	0.73318
395.00	0.70442
396.00	0.66557
397.00	0.62466
398.00	0.58374
399.00	0.54580
400.00	0.50927
401.00	0.47273
402.00	0.44090
403.00	0.40907
404.00	0.37955
405.00	0.35169
406.00	0.32478
407.00	0.30315
408.00	0.28152
409.00	0.26021
410.00	0.23923
411.00	0.22789
412.00	0.21655
413.00	0.20520
414.00	0.19382
415.00	0.18244
416.00	0.17178
417.00	0.16419
418.00	0.15660
419.00	0.14901
420.00	0.14174
421.00	0.13521
422.00	0.12869
423.00	0.12216
424.00	0.11730
425.00	0.11330
426.00	0.10930
427.00	0.10530
428.00	0.10130
429.00	0.097182
430.00	0.093035
431.00	0.088887
432.00	0.084740
433.00	0.080593
434.00	0.078055
435.00	0.075620
436.00	0.073184
437.00	0.070749
438.00	0.068314
439.00	0.065878
440.00	0.063507
441.00	0.061532
442.00	0.059556
443.00	0.057581
444.00	0.055605
445.00	0.053629
446.00	0.051654
447.00	0.050167
448.00	0.049034
449.00	0.047901
450.00	0.046768
451.00	0.045635
452.00	0.044502
453.00	0.043369
454.00	0.042235
455.00	0.041275
456.00	0.040682
457.00	0.040089
458.00	0.039496
459.00	0.038902
460.00	0.038309
461.00	0.037716
462.00	0.037123
463.00	0.036530
464.00	0.035936
465.00	0.035303
466.00	0.034645
467.00	0.033987
468.00	0.033329
469.00	0.032670
470.00	0.032012
471.00	0.031354
472.00	0.030695
473.00	0.030037
474.00	0.029648
475.00	0.029304
476.00	0.028959
477.00	0.028614
478.00	0.028269
479.00	0.027924
480.00	0.027579
481.00	0.027235
482.00	0.026890
483.00	0.026545
484.00	0.026284
485.00	0.026140
486.00	0.025995
487.00	0.025851
488.00	0.025706
489.00	0.025561
490.00	0.025417
491.00	0.025272
492.00	0.025128
493.00	0.024983
494.00	0.024850
495.00	0.024732
496.00	0.024613
497.00	0.024495
498.00	0.024376
499.00	0.024258
500.00	0.024139
501.00	0.024021
502.00	0.023902
503.00	0.023784
504.00	0.023665
505.00	0.023547
506.00	0.023530
507.00	0.023738
508.00	0.023946
509.00	0.024154
510.00	0.024362
511.00	0.024570
512.00	0.024778
513.00	0.024986
514.00	0.025194
515.00	0.025402
516.00	0.025610
517.00	0.025819
518.00	0.026027
519.00	0.026235
520.00	0.026345
521.00	0.026345
522.00	0.026345
523.00	0.026345
524.00	0.026345
525.00	0.026345
526.00	0.026345
527.00	0.026345
528.00	0.026345
529.00	0.026345
530.00	0.026345
531.00	0.026345
532.00	0.026345
533.00	0.026345
534.00	0.026526
535.00	0.026818
536.00	0.027109
537.00	0.027401
538.00	0.027693
539.00	0.027984
540.00	0.028276
541.00	0.028568
542.00	0.028859
543.00	0.029151
544.00	0.029443
545.00	0.029734
546.00	0.030026
547.00	0.030318
548.00	0.030610
549.00	0.031003
550.00	0.031419
551.00	0.031836
552.00	0.032253
553.00	0.032669
554.00	0.033086
555.00	0.033503
556.00	0.033920
557.00	0.034336
558.00	0.034753
559.00	0.035170
560.00	0.035586
561.00	0.036003
562.00	0.036420
563.00	0.036837
564.00	0.037312
565.00	0.037954
566.00	0.038597
567.00	0.039239
568.00	0.039881
569.00	0.040524
570.00	0.041166
571.00	0.041808
572.00	0.042451
573.00	0.043093
574.00	0.043735
575.00	0.044378
576.00	0.045020
577.00	0.045663
578.00	0.046305
579.00	0.047299
580.00	0.048452
581.00	0.049604
582.00	0.050756
583.00	0.051909
584.00	0.053061
585.00	0.054214
586.00	0.055366
587.00	0.056519
588.00	0.057671
589.00	0.058824
590.00	0.059976
591.00	0.061128
592.00	0.062398
593.00	0.063757
594.00	0.065115
595.00	0.066474
596.00	0.067832
597.00	0.069191
598.00	0.070549
599.00	0.071908
600.00	0.073266
601.00	0.074625
602.00	0.075983
603.00	0.077342
604.00	0.078686
605.00	0.080028
606.00	0.081371
607.00	0.082713
608.00	0.084056
609.00	0.085399
610.00	0.086741
611.00	0.088084
612.00	0.089426
613.00	0.090769
614.00	0.092112
615.00	0.093454
616.00	0.094820
617.00	0.096752
618.00	0.098684
619.00	0.10062
620.00	0.10255
621.00	0.10448
622.00	0.10641
623.00	0.10834
624.00	0.11027
625.00	0.11221
626.00	0.11414
627.00	0.11607
628.00	0.11821
629.00	0.12038
630.00	0.12256
631.00	0.12473
632.00	0.12690
633.00	0.12908
634.00	0.13125
635.00	0.13343
636.00	0.13560
637.00	0.13777
638.00	0.13995
639.00	0.14286
640.00	0.14582
641.00	0.14879
642.00	0.15175
643.00	0.15472
644.00	0.15768
645.00	0.16065
646.00	0.16361
647.00	0.16672
648.00	0.17001
649.00	0.17330
650.00	0.17659
651.00	0.17989
652.00	0.18318
653.00	0.18647
654.00	0.18859
655.00	0.19053
656.00	0.19247
657.00	0.19441
658.00	0.19635
659.00	0.19829
660.00	0.20022
661.00	0.20216
662.00	0.20410
663.00	0.20603
664.00	0.20797
665.00	0.20991
666.00	0.21158
667.00	0.21241
668.00	0.21325
669.00	0.21408
670.00	0.21492
671.00	0.21575
672.00	0.21658
673.00	0.21742
674.00	0.21822
675.00	0.21898
676.00	0.21975
677.00	0.22051
678.00	0.22128
679.00	0.22204
680.00	0.22281
681.00	0.22357
682.00	0.22402
683.00	0.22444
684.00	0.22487
685.00	0.22529
686.00	0.22571
687.00	0.22614
688.00	0.22661
689.00	0.22741
690.00	0.22821
691.00	0.22900
692.00	0.22980
693.00	0.23060
694.00	0.23140
695.00	0.23339
696.00	0.23564
697.00	0.23790
698.00	0.24015
699.00	0.24240
700.00	0.24466
701.00	0.24787
702.00	0.25140
703.00	0.25493
704.00	0.25846
705.00	0.26198
706.00	0.26542
707.00	0.26881
708.00	0.27220
709.00	0.27559
710.00	0.27898
711.00	0.28236
712.00	0.28575
713.00	0.28868
714.00	0.29153
715.00	0.29438
716.00	0.29723
717.00	0.30007
718.00	0.30292
719.00	0.30601
720.00	0.30930
721.00	0.31260
722.00	0.31589
723.00	0.31884
724.00	0.31997
725.00	0.32110
726.00	0.32223
727.00	0.32164
728.00	0.32105
729.00	0.32047
730.00	0.31988
731.00	0.31900
732.00	0.31643
733.00	0.31387
734.00	0.31130
735.00	0.30807
736.00	0.30416
737.00	0.30025
738.00	0.29635
739.00	0.29157
740.00	0.28635
741.00	0.28113
742.00	0.27590
743.00	0.27029
744.00	0.26411
745.00	0.25793
746.00	0.25175
747.00	0.24557
748.00	0.23860
749.00	0.23136
750.00	0.22413
751.00	0.21690
752.00	0.20966
753.00	0.20242
754.00	0.19519
755.00	0.18795
756.00	0.18071
757.00	0.17347
758.00	0.16634
759.00	0.15963
760.00	0.15292
761.00	0.14621
762.00	0.13951
763.00	0.13385
764.00	0.12899
765.00	0.12413
766.00	0.11926
767.00	0.11440
768.00	0.10940
769.00	0.10427
770.00	0.099137
771.00	0.094005
772.00	0.088872
773.00	0.084115
774.00	0.080485
775.00	0.076855
776.00	0.073224
777.00	0.069594
778.00	0.065963
779.00	0.062333
780.00	0.059686
781.00	0.057070
782.00	0.054454
783.00	0.051838
784.00	0.049222
785.00	0.046606
786.00	0.044025
787.00	0.041803
788.00	0.039581
789.00	0.037358
790.00	0.035136
791.00	0.032914
792.00	0.030692
793.00	0.028469
794.00	0.026840
795.00	0.025358
796.00	0.023877
797.00	0.022395
798.00	0.020914
799.00	0.019432
800.00	0.017951
801.00	0.016867
802.00	0.016165
803.00	0.015462
804.00	0.014760
805.00	0.014058
806.00	0.013356
807.00	0.012654
808.00	0.011951
809.00	0.011410
810.00	0.010904
811.00	0.010398
812.00	0.0098922
813.00	0.0093863
814.00	0.0088803
815.00	0.0083743
816.00	0.0078684
817.00	0.0074152
818.00	0.0070107
819.00	0.0066062
820.00	0.0062017
821.00	0.0057972
822.00	0.0053928
823.00	0.0049883
824.00	0.0045838
825.00	0.0041793
826.00	0.0039525
827.00	0.0038347
828.00	0.0037169
829.00	0.0035991
830.00	0.0034812
831.00	0.0033634
832.00	0.0032456
833.00	0.0031278
834.00	0.0030099
835.00	0.0028921
836.00	0.0027743
837.00	0.0026573
838.00	0.0025497
839.00	0.0024421
840.00	0.0023346
841.00	0.0022270
842.00	0.0021194
843.00	0.0020119
844.00	0.0019043
845.00	0.0017967
846.00	0.0016891
847.00	0.0015816
848.00	0.0014740
849.00	0.0013951
850.00	0.0013721
851.00	0.0013490
852.00	0.0013259
853.00	0.0013028
854.00	0.0012797
855.00	0.0012566
856.00	0.0012335
857.00	0.0012104
858.00	0.0011873
859.00	0.0011642
860.00	0.0011411
861.00	0.0011180
862.00	0.0010949
863.00	0.0010718
864.00	0.0010487
865.00	0.0010256
866.00	0.0010256
867.00	0.0010256
868.00	0.0010256
869.00	0.0010256
870.00	0.0010256
871.00	0.0010256
872.00	0.0010256
873.00	0.0010256
874.00	0.0010256
875.00	0.0010256
876.00	0.0010256
877.00	0.0010256
878.00	0.0010256
879.00	0.0010256
880.00	0.0010256
881.00	0.0010256
882.00	0.0010256
883.00	0.0010256
884.00	0.0010256
885.00	0.0010256
886.00	0.0010256
887.00	0.0010256
888.00	0.0010256
889.00	0.0010256
890.00	0.0010256
891.00	0.0010256
892.00	0.0010256
893.00	0.0010256
894.00	0.0010256
895.00	0.0010256
896.00	0.0010256
897.00	0.0010256
898.00	0.0010256
899.00	0.0010256
900.00	0.0010256
901.00	
902.00	
903.00	
904.00	
905.00	
906.00	
907.00	
908.00	
909.00	
910.00	
911.00	
912.00	
913.00	
914.00	
915.00	
916.00	
917.00	
918.00	
919.00	
920.00	
921.00	
922.00	
923.00	
924.00	
925.00	
926.00	
927.00	
928.00	
929.00	
930.00	
931.00	
932.00	
933.00	
934.00	
935.00	
936.00	
937.00	
938.00	
939.00	
940.00	
941.00	
942.00	
943.00	
944.00	
945.00	
946.00	
947.00	
948.00	
949.00	
950.00	
951.00	
952.00	
953.00	
954.00	
955.00	
956.00	
957.00	
958.00	
959.00	
960.00	
961.00	
962.00	
963.00	
964.00	
965.00	
966.00	
967.00	
968.00	
969.00	
970.00	
971.00	
972.00	
973.00	
974.00	
975.00	
976.00	
977.00	
978.00	
979.00	
980.00	
981.00	
982.00	
983.00	
984.00	
985.00	
986.00	
987.00	
988.00	
989.00	
990.00	
991.00	
992.00	
993.00	
994.00	
995.00	
996.00	
997.00	
998.00	
999.00	
1000.0	
1001.0	
1002.0	
1003.0	
1004.0	
1005.0	
1006.0	
1007.0	
1008.0	
1009.0	
1010.0	
1011.0	
1012.0	
1013.0	
1014.0	
1015.0	
1016.0	
1017.0	
1018.0	
1019.0	
1020.0	
1021.0	
1022.0	
1023.0	
1024.0	
1025.0	
1026.0	
1027.0	
1028.0	
1029.0	
1030.0	
1031.0	
1032.0	
1033.0	
1034.0	
1035.0	
1036.0	
1037.0	
1038.0	
1039.0	
1040.0	
1041.0	
1042.0	
1043.0	
1044.0	
1045.0	
1046.0	
1047.0	
1048.0	
1049.0	
1050.0	
1051.0	
1052.0	
1053.0	
1054.0	
1055.0	
1056.0	
1057.0	
1058.0	
1059.0	
1060.0	
1061.0	
1062.0	
1063.0	
1064.0	
1065.0	
1066.0	
1067.0	
1068.0	
1069.0	
1070.0	
1071.0	
1072.0	
1073.0	
1074.0	
1075.0	
1076.0	
1077.0	
1078.0	
1079.0	
1080.0	
1081.0	
1082.0	
1083.0	
1084.0	
1085.0	
1086.0	
1087.0	
1088.0	
1089.0	
1090.0	
1091.0	
1092.0	
1093.0	
1094.0	
1095.0	
1096.0	
1097.0	
1098.0	
1099.0	
1100.0	
1101.0	
1102.0	
1103.0	
1104.0	
1105.0	
1106.0	
1107.0	
1108.0	
1109.0	
1110.0	
1111.0	
1112.0	
1113.0	
1114.0	
1115.0	
1116.0	
1117.0	
1118.0	
1119.0	
1120.0	
1121.0	
1122.0	
1123.0	
1124.0	
1125.0	
1126.0	
1127.0	
1128.0	
1129.0	
1130.0	
1131.0	
1132.0	
1133.0	
1134.0	
1135.0	
1136.0	
1137.0	
1138.0	
1139.0	
1140.0	
1141.0	
1142.0	
1143.0	
1144.0	
1145.0	
1146.0	
1147.0	
1148.0	
1149.0	
1150.0	
1151.0	
1152.0	
1153.0	
1154.0	
1155.0	
1156.0	
1157.0	
1158.0	
1159.0	
1160.0	
1161.0	
1162.0	
1163.0	
1164.0	
1165.0	
1166.0	
1167.0	
1168.0	
1169.0	
1170.0	
1171.0	
1172.0	
1173.0	
1174.0	
1175.0	
1176.0	
1177.0	
1178.0	
1179.0	
1180.0	
1181.0	
1182.0	
1183.0	
1184.0	
1185.0	
1186.0	
1187.0	
1188.0	
1189.0	
1190.0	
1191.0	
1192.0	
1193.0	
1194.0	
1195.0	
1196.0	
1197.0	
1198.0	
1199.0	
1200.0	
