Wavelength (nm)	"23, JHC 2005_161, MBV-DME CHCl3"
200.00	
201.00	
202.00	
203.00	
204.00	
205.00	
206.00	
207.00	
208.00	
209.00	
210.00	
211.00	
212.00	
213.00	
214.00	
215.00	
216.00	
217.00	
218.00	
219.00	
220.00	
221.00	
222.00	
223.00	
224.00	
225.00	
226.00	
227.00	
228.00	
229.00	
230.00	
231.00	
232.00	
233.00	
234.00	
235.00	
236.00	
237.00	
238.00	
239.00	
240.00	
241.00	
242.00	
243.00	
244.00	
245.00	
246.00	
247.00	
248.00	
249.00	
250.00	0.22652
251.00	0.23046
252.00	0.23441
253.00	0.23803
254.00	0.24103
255.00	0.24403
256.00	0.24704
257.00	0.25004
258.00	0.25304
259.00	0.25767
260.00	0.26267
261.00	0.26768
262.00	0.27269
263.00	0.27770
264.00	0.28251
265.00	0.28725
266.00	0.29199
267.00	0.29672
268.00	0.30146
269.00	0.30679
270.00	0.31222
271.00	0.31766
272.00	0.32145
273.00	0.32502
274.00	0.32859
275.00	0.33154
276.00	0.33196
277.00	0.33239
278.00	0.33282
279.00	0.33325
280.00	0.33377
281.00	0.33517
282.00	0.33658
283.00	0.33799
284.00	0.33972
285.00	0.34277
286.00	0.34582
287.00	0.34943
288.00	0.35414
289.00	0.35885
290.00	0.36356
291.00	0.36762
292.00	0.37136
293.00	0.37511
294.00	0.37885
295.00	0.38260
296.00	0.38664
297.00	0.39252
298.00	0.39839
299.00	0.40426
300.00	0.40921
301.00	0.41395
302.00	0.41868
303.00	0.42063
304.00	0.42237
305.00	0.42411
306.00	0.42585
307.00	0.42744
308.00	0.42888
309.00	0.43032
310.00	0.42992
311.00	0.42840
312.00	0.42687
313.00	0.42535
314.00	0.42382
315.00	0.42364
316.00	0.42352
317.00	0.42340
318.00	0.42327
319.00	0.42327
320.00	0.42454
321.00	0.42581
322.00	0.42708
323.00	0.42835
324.00	0.43098
325.00	0.43381
326.00	0.43663
327.00	0.43945
328.00	0.44658
329.00	0.45423
330.00	0.46189
331.00	0.46995
332.00	0.47832
333.00	0.48669
334.00	0.49507
335.00	0.50344
336.00	0.51429
337.00	0.53259
338.00	0.55089
339.00	0.56873
340.00	0.58371
341.00	0.59869
342.00	0.61367
343.00	0.62866
344.00	0.64364
345.00	0.66264
346.00	0.68432
347.00	0.70600
348.00	0.72768
349.00	0.74904
350.00	0.76884
351.00	0.78865
352.00	0.80845
353.00	0.82826
354.00	0.84594
355.00	0.86288
356.00	0.87982
357.00	0.89676
358.00	0.91074
359.00	0.92374
360.00	0.93674
361.00	0.94974
362.00	0.96274
363.00	0.97063
364.00	0.97776
365.00	0.98489
366.00	0.99202
367.00	0.99506
368.00	0.99753
369.00	1.0000
370.00	0.99866
371.00	0.99732
372.00	0.99289
373.00	0.98247
374.00	0.96699
375.00	0.94213
376.00	0.91727
377.00	0.89085
378.00	0.85979
379.00	0.82873
380.00	0.79767
381.00	0.76064
382.00	0.72106
383.00	0.68147
384.00	0.64029
385.00	0.59804
386.00	0.55579
387.00	0.51315
388.00	0.46323
389.00	0.41330
390.00	0.37111
391.00	0.34102
392.00	0.31554
393.00	0.29695
394.00	0.27836
395.00	0.25978
396.00	0.24047
397.00	0.21811
398.00	0.19575
399.00	0.17684
400.00	0.16596
401.00	0.15508
402.00	0.14419
403.00	0.13508
404.00	0.12747
405.00	0.11986
406.00	0.11225
407.00	0.10486
408.00	0.099514
409.00	0.094164
410.00	0.088813
411.00	0.083463
412.00	0.079694
413.00	0.076122
414.00	0.072549
415.00	0.068976
416.00	0.065404
417.00	0.062812
418.00	0.060932
419.00	0.059051
420.00	0.057171
421.00	0.055290
422.00	0.053410
423.00	0.051767
424.00	0.050288
425.00	0.048810
426.00	0.047331
427.00	0.045853
428.00	0.044374
429.00	0.042896
430.00	0.041417
431.00	0.040021
432.00	0.039025
433.00	0.038030
434.00	0.037035
435.00	0.036039
436.00	0.035044
437.00	0.034048
438.00	0.033053
439.00	0.032058
440.00	0.031062
441.00	0.030289
442.00	0.029640
443.00	0.028991
444.00	0.028342
445.00	0.027693
446.00	0.027045
447.00	0.026396
448.00	0.025873
449.00	0.025605
450.00	0.025338
451.00	0.025071
452.00	0.024803
453.00	0.024536
454.00	0.024269
455.00	0.024183
456.00	0.024183
457.00	0.024183
458.00	0.024183
459.00	0.024183
460.00	0.024183
461.00	0.024183
462.00	0.024183
463.00	0.024183
464.00	0.024183
465.00	0.024183
466.00	0.024183
467.00	0.024183
468.00	0.024183
469.00	0.024183
470.00	0.024183
471.00	0.024183
472.00	0.024183
473.00	0.024183
474.00	0.024183
475.00	0.024382
476.00	0.024592
477.00	0.024802
478.00	0.025012
479.00	0.025222
480.00	0.025431
481.00	0.025641
482.00	0.025851
483.00	0.026061
484.00	0.026271
485.00	0.026481
486.00	0.026797
487.00	0.027172
488.00	0.027547
489.00	0.027921
490.00	0.028296
491.00	0.028670
492.00	0.029045
493.00	0.029419
494.00	0.029794
495.00	0.030168
496.00	0.030543
497.00	0.031170
498.00	0.031987
499.00	0.032804
500.00	0.033621
501.00	0.034438
502.00	0.035256
503.00	0.036073
504.00	0.036890
505.00	0.037909
506.00	0.039068
507.00	0.040227
508.00	0.041386
509.00	0.042545
510.00	0.043704
511.00	0.044862
512.00	0.046189
513.00	0.047527
514.00	0.048865
515.00	0.050203
516.00	0.051540
517.00	0.052878
518.00	0.054216
519.00	0.055554
520.00	0.056891
521.00	0.058265
522.00	0.059794
523.00	0.061322
524.00	0.062850
525.00	0.064378
526.00	0.065907
527.00	0.067435
528.00	0.068963
529.00	0.070491
530.00	0.072020
531.00	0.073969
532.00	0.075977
533.00	0.077984
534.00	0.079991
535.00	0.081999
536.00	0.084006
537.00	0.086013
538.00	0.088021
539.00	0.090037
540.00	0.092478
541.00	0.094919
542.00	0.097360
543.00	0.099802
544.00	0.10224
545.00	0.10468
546.00	0.10713
547.00	0.10957
548.00	0.11201
549.00	0.11445
550.00	0.11689
551.00	0.11933
552.00	0.12183
553.00	0.12440
554.00	0.12698
555.00	0.12956
556.00	0.13214
557.00	0.13472
558.00	0.13730
559.00	0.13988
560.00	0.14246
561.00	0.14504
562.00	0.14762
563.00	0.15020
564.00	0.15278
565.00	0.15534
566.00	0.15789
567.00	0.16045
568.00	0.16301
569.00	0.16556
570.00	0.16812
571.00	0.17068
572.00	0.17323
573.00	0.17579
574.00	0.17835
575.00	0.18096
576.00	0.18358
577.00	0.18620
578.00	0.18882
579.00	0.19144
580.00	0.19406
581.00	0.19669
582.00	0.19931
583.00	0.20193
584.00	0.20455
585.00	0.20717
586.00	0.20990
587.00	0.21268
588.00	0.21545
589.00	0.21823
590.00	0.22100
591.00	0.22378
592.00	0.22655
593.00	0.22933
594.00	0.23211
595.00	0.23488
596.00	0.23766
597.00	0.24043
598.00	0.24276
599.00	0.24507
600.00	0.24737
601.00	0.24968
602.00	0.25199
603.00	0.25429
604.00	0.25660
605.00	0.25890
606.00	0.26060
607.00	0.26228
608.00	0.26396
609.00	0.26565
610.00	0.26733
611.00	0.26901
612.00	0.27001
613.00	0.27101
614.00	0.27200
615.00	0.27299
616.00	0.27399
617.00	0.27498
618.00	0.27597
619.00	0.27692
620.00	0.27773
621.00	0.27854
622.00	0.27935
623.00	0.28016
624.00	0.28097
625.00	0.28179
626.00	0.28260
627.00	0.28301
628.00	0.28339
629.00	0.28378
630.00	0.28416
631.00	0.28454
632.00	0.28493
633.00	0.28531
634.00	0.28568
635.00	0.28603
636.00	0.28637
637.00	0.28671
638.00	0.28706
639.00	0.28740
640.00	0.28675
641.00	0.28610
642.00	0.28545
643.00	0.28480
644.00	0.28416
645.00	0.28336
646.00	0.28244
647.00	0.28152
648.00	0.28060
649.00	0.27968
650.00	0.27876
651.00	0.27784
652.00	0.27674
653.00	0.27540
654.00	0.27406
655.00	0.27273
656.00	0.27139
657.00	0.27005
658.00	0.26871
659.00	0.26691
660.00	0.26498
661.00	0.26306
662.00	0.26113
663.00	0.25920
664.00	0.25694
665.00	0.25365
666.00	0.25036
667.00	0.24707
668.00	0.24379
669.00	0.24050
670.00	0.23716
671.00	0.23376
672.00	0.23036
673.00	0.22697
674.00	0.22357
675.00	0.22017
676.00	0.21677
677.00	0.21338
678.00	0.20970
679.00	0.20533
680.00	0.20096
681.00	0.19658
682.00	0.19220
683.00	0.18783
684.00	0.18346
685.00	0.17889
686.00	0.17421
687.00	0.16954
688.00	0.16486
689.00	0.16018
690.00	0.15551
691.00	0.15083
692.00	0.14658
693.00	0.14270
694.00	0.13882
695.00	0.13493
696.00	0.13105
697.00	0.12717
698.00	0.12328
699.00	0.11966
700.00	0.11618
701.00	0.11269
702.00	0.10920
703.00	0.10572
704.00	0.10223
705.00	0.098741
706.00	0.095425
707.00	0.092415
708.00	0.089405
709.00	0.086395
710.00	0.083385
711.00	0.080375
712.00	0.077364
713.00	0.074466
714.00	0.071872
715.00	0.069277
716.00	0.066682
717.00	0.064088
718.00	0.061493
719.00	0.058898
720.00	0.056304
721.00	0.053936
722.00	0.051653
723.00	0.049370
724.00	0.047087
725.00	0.044804
726.00	0.042521
727.00	0.040238
728.00	0.038090
729.00	0.036486
730.00	0.034881
731.00	0.033277
732.00	0.031673
733.00	0.030068
734.00	0.028464
735.00	0.026859
736.00	0.025409
737.00	0.024155
738.00	0.022901
739.00	0.021647
740.00	0.020393
741.00	0.019138
742.00	0.017884
743.00	0.016714
744.00	0.015700
745.00	0.014686
746.00	0.013672
747.00	0.012657
748.00	0.011643
749.00	0.010629
750.00	0.010167
751.00	0.0097530
752.00	0.0093389
753.00	0.0089249
754.00	0.0085108
755.00	0.0080967
756.00	0.0076827
757.00	0.0067520
758.00	0.0054910
759.00	0.0042300
760.00	0.0038610
761.00	0.0034919
762.00	0.0031229
763.00	0.0027538
764.00	0.0024061
765.00	0.0023417
766.00	0.0022773
767.00	0.0022129
768.00	0.0021486
769.00	0.0020842
770.00	0.0020198
771.00	0.0019554
772.00	0.0018910
773.00	0.0018266
774.00	0.0017622
775.00	0.0016979
776.00	0.0016335
777.00	0.0015691
778.00	0.0015047
779.00	0.0014693
780.00	0.0014693
781.00	0.0014693
782.00	0.0014693
783.00	0.0014693
784.00	0.0014693
785.00	0.0014693
786.00	0.0014693
787.00	0.0014693
788.00	0.0014693
789.00	0.0014693
790.00	0.0014693
791.00	0.0014693
792.00	0.0014693
793.00	0.0014693
794.00	0.0014693
795.00	0.0014693
796.00	0.0014693
797.00	0.0014693
798.00	0.0014693
799.00	0.0014693
800.00	0.0014693
801.00	
802.00	
803.00	
804.00	
805.00	
806.00	
807.00	
808.00	
809.00	
810.00	
811.00	
812.00	
813.00	
814.00	
815.00	
816.00	
817.00	
818.00	
819.00	
820.00	
821.00	
822.00	
823.00	
824.00	
825.00	
826.00	
827.00	
828.00	
829.00	
830.00	
831.00	
832.00	
833.00	
834.00	
835.00	
836.00	
837.00	
838.00	
839.00	
840.00	
841.00	
842.00	
843.00	
844.00	
845.00	
846.00	
847.00	
848.00	
849.00	
850.00	
851.00	
852.00	
853.00	
854.00	
855.00	
856.00	
857.00	
858.00	
859.00	
860.00	
861.00	
862.00	
863.00	
864.00	
865.00	
866.00	
867.00	
868.00	
869.00	
870.00	
871.00	
872.00	
873.00	
874.00	
875.00	
876.00	
877.00	
878.00	
879.00	
880.00	
881.00	
882.00	
883.00	
884.00	
885.00	
886.00	
887.00	
888.00	
889.00	
890.00	
891.00	
892.00	
893.00	
894.00	
895.00	
896.00	
897.00	
898.00	
899.00	
900.00	
901.00	
902.00	
903.00	
904.00	
905.00	
906.00	
907.00	
908.00	
909.00	
910.00	
911.00	
912.00	
913.00	
914.00	
915.00	
916.00	
917.00	
918.00	
919.00	
920.00	
921.00	
922.00	
923.00	
924.00	
925.00	
926.00	
927.00	
928.00	
929.00	
930.00	
931.00	
932.00	
933.00	
934.00	
935.00	
936.00	
937.00	
938.00	
939.00	
940.00	
941.00	
942.00	
943.00	
944.00	
945.00	
946.00	
947.00	
948.00	
949.00	
950.00	
951.00	
952.00	
953.00	
954.00	
955.00	
956.00	
957.00	
958.00	
959.00	
960.00	
961.00	
962.00	
963.00	
964.00	
965.00	
966.00	
967.00	
968.00	
969.00	
970.00	
971.00	
972.00	
973.00	
974.00	
975.00	
976.00	
977.00	
978.00	
979.00	
980.00	
981.00	
982.00	
983.00	
984.00	
985.00	
986.00	
987.00	
988.00	
989.00	
990.00	
991.00	
992.00	
993.00	
994.00	
995.00	
996.00	
997.00	
998.00	
999.00	
1000.0	
1001.0	
1002.0	
1003.0	
1004.0	
1005.0	
1006.0	
1007.0	
1008.0	
1009.0	
1010.0	
1011.0	
1012.0	
1013.0	
1014.0	
1015.0	
1016.0	
1017.0	
1018.0	
1019.0	
1020.0	
1021.0	
1022.0	
1023.0	
1024.0	
1025.0	
1026.0	
1027.0	
1028.0	
1029.0	
1030.0	
1031.0	
1032.0	
1033.0	
1034.0	
1035.0	
1036.0	
1037.0	
1038.0	
1039.0	
1040.0	
1041.0	
1042.0	
1043.0	
1044.0	
1045.0	
1046.0	
1047.0	
1048.0	
1049.0	
1050.0	
1051.0	
1052.0	
1053.0	
1054.0	
1055.0	
1056.0	
1057.0	
1058.0	
1059.0	
1060.0	
1061.0	
1062.0	
1063.0	
1064.0	
1065.0	
1066.0	
1067.0	
1068.0	
1069.0	
1070.0	
1071.0	
1072.0	
1073.0	
1074.0	
1075.0	
1076.0	
1077.0	
1078.0	
1079.0	
1080.0	
1081.0	
1082.0	
1083.0	
1084.0	
1085.0	
1086.0	
1087.0	
1088.0	
1089.0	
1090.0	
1091.0	
1092.0	
1093.0	
1094.0	
1095.0	
1096.0	
1097.0	
1098.0	
1099.0	
1100.0	
1101.0	
1102.0	
1103.0	
1104.0	
1105.0	
1106.0	
1107.0	
1108.0	
1109.0	
1110.0	
1111.0	
1112.0	
1113.0	
1114.0	
1115.0	
1116.0	
1117.0	
1118.0	
1119.0	
1120.0	
1121.0	
1122.0	
1123.0	
1124.0	
1125.0	
1126.0	
1127.0	
1128.0	
1129.0	
1130.0	
1131.0	
1132.0	
1133.0	
1134.0	
1135.0	
1136.0	
1137.0	
1138.0	
1139.0	
1140.0	
1141.0	
1142.0	
1143.0	
1144.0	
1145.0	
1146.0	
1147.0	
1148.0	
1149.0	
1150.0	
1151.0	
1152.0	
1153.0	
1154.0	
1155.0	
1156.0	
1157.0	
1158.0	
1159.0	
1160.0	
1161.0	
1162.0	
1163.0	
1164.0	
1165.0	
1166.0	
1167.0	
1168.0	
1169.0	
1170.0	
1171.0	
1172.0	
1173.0	
1174.0	
1175.0	
1176.0	
1177.0	
1178.0	
1179.0	
1180.0	
1181.0	
1182.0	
1183.0	
1184.0	
1185.0	
1186.0	
1187.0	
1188.0	
1189.0	
1190.0	
1191.0	
1192.0	
1193.0	
1194.0	
1195.0	
1196.0	
1197.0	
1198.0	
1199.0	
1200.0	
