Wavelength (nm)	S07 abs e
300.00	24332
301.00	24838
302.00	25462
303.00	26203
304.00	27019
305.00	27915
306.00	28899
307.00	29993
308.00	31138
309.00	32340
310.00	33610
311.00	34940
312.00	36296
313.00	37692
314.00	39147
315.00	40679
316.00	42209
317.00	43842
318.00	45559
319.00	47355
320.00	49184
321.00	51131
322.00	53180
323.00	55292
324.00	57443
325.00	59649
326.00	61924
327.00	64197
328.00	66477
329.00	68685
330.00	70893
331.00	72961
332.00	74998
333.00	76847
334.00	78545
335.00	80155
336.00	81601
337.00	82867
338.00	84070
339.00	85195
340.00	86205
341.00	87221
342.00	88184
343.00	89135
344.00	90038
345.00	90827
346.00	91532
347.00	92069
348.00	92356
349.00	92457
350.00	92262
351.00	91932
352.00	91383
353.00	90663
354.00	89749
355.00	88761
356.00	87592
357.00	86464
358.00	85212
359.00	83752
360.00	82077
361.00	80139
362.00	78074
363.00	75984
364.00	73948
365.00	71862
366.00	69783
367.00	67693
368.00	65694
369.00	63748
370.00	61910
371.00	60114
372.00	58439
373.00	56793
374.00	55248
375.00	53759
376.00	52320
377.00	50917
378.00	49558
379.00	48297
380.00	47079
381.00	45831
382.00	44558
383.00	43384
384.00	42264
385.00	41084
386.00	39919
387.00	38798
388.00	37665
389.00	36634
390.00	35534
391.00	34409
392.00	33388
393.00	32429
394.00	31480
395.00	30404
396.00	29440
397.00	28386
398.00	27456
399.00	26565
400.00	25654
401.00	24749
402.00	23846
403.00	22929
404.00	22048
405.00	21195
406.00	20355
407.00	19525
408.00	18628
409.00	17820
410.00	16927
411.00	16109
412.00	15289
413.00	14492
414.00	13791
415.00	13084
416.00	12403
417.00	11747
418.00	11120
419.00	10507
420.00	9887.8
421.00	9248.3
422.00	8719.2
423.00	8261.7
424.00	7792.8
425.00	7332.1
426.00	7006.0
427.00	6665.7
428.00	6427.5
429.00	6246.9
430.00	6055.2
431.00	5821.7
432.00	5580.0
433.00	5260.6
434.00	4929.8
435.00	4709.6
436.00	4461.0
437.00	4173.1
438.00	3943.8
439.00	3694.9
440.00	3473.3
441.00	3263.7
442.00	3082.9
443.00	2918.9
444.00	2799.2
445.00	2655.0
446.00	2465.2
447.00	2358.8
448.00	2233.5
449.00	2100.3
450.00	1984.7
451.00	1890.2
452.00	1793.1
453.00	1709.8
454.00	1636.3
455.00	1620.7
456.00	1569.8
457.00	1556.4
458.00	1535.5
459.00	1497.2
460.00	1415.5
461.00	1370.4
462.00	1267.0
463.00	1215.9
464.00	1152.5
465.00	1052.2
466.00	1018.3
467.00	975.76
468.00	926.57
469.00	834.51
470.00	762.48
471.00	789.88
472.00	734.89
473.00	755.27
474.00	657.59
475.00	687.98
476.00	589.60
477.00	625.26
478.00	634.75
479.00	604.18
480.00	593.11
481.00	629.31
482.00	615.60
483.00	565.00
484.00	549.37
485.00	630.18
486.00	498.24
487.00	476.46
488.00	644.77
489.00	540.76
490.00	487.35
491.00	502.99
492.00	487.17
493.00	501.40
494.00	488.23
495.00	518.62
496.00	534.79
497.00	507.55
498.00	553.06
499.00	540.41
500.00	516.51
501.00	532.50
502.00	584.15
503.00	550.42
504.00	545.68
505.00	578.53
506.00	593.64
507.00	622.28
508.00	668.31
509.00	669.71
510.00	719.78
511.00	734.54
512.00	737.00
513.00	783.03
514.00	839.25
515.00	820.45
516.00	870.52
517.00	887.21
518.00	923.58
519.00	950.46
520.00	966.10
521.00	1010.9
522.00	1050.6
523.00	1116.0
524.00	1141.8
525.00	1152.1
526.00	1185.5
527.00	1238.6
528.00	1284.1
529.00	1337.5
530.00	1388.8
531.00	1393.4
532.00	1477.5
533.00	1522.0
534.00	1591.7
535.00	1634.4
536.00	1710.0
537.00	1779.9
538.00	1875.5
539.00	1943.3
540.00	2052.0
541.00	2103.1
542.00	2199.4
543.00	2287.3
544.00	2377.2
545.00	2438.5
546.00	2546.2
547.00	2665.7
548.00	2802.0
549.00	2920.8
550.00	3053.4
551.00	3231.6
552.00	3454.7
553.00	3659.4
554.00	3909.7
555.00	4178.7
556.00	4495.5
557.00	4805.4
558.00	5152.9
559.00	5531.7
560.00	5910.3
561.00	6255.5
562.00	6600.6
563.00	6916.3
564.00	7157.5
565.00	7346.2
566.00	7506.6
567.00	7685.2
568.00	7816.5
569.00	7940.5
570.00	8003.4
571.00	8084.9
572.00	8163.8
573.00	8217.4
574.00	8295.9
575.00	8433.0
576.00	8587.0
577.00	8827.0
578.00	9177.7
579.00	9525.9
580.00	9931.4
581.00	10362
582.00	10802
583.00	11241
584.00	11640
585.00	11942
586.00	12206
587.00	12410
588.00	12551
589.00	12723
590.00	12879
591.00	13096
592.00	13389
593.00	13753
594.00	14303
595.00	15037
596.00	15996
597.00	17263
598.00	18869
599.00	20693
600.00	22908
601.00	25458
602.00	28476
603.00	32034
604.00	36038
605.00	40687
606.00	45437
607.00	50118
608.00	54105
609.00	56970
610.00	58526
611.00	58668
612.00	57629
613.00	55772
614.00	53518
615.00	51109
616.00	48712
617.00	46433
618.00	44358
619.00	42386
620.00	40516
621.00	38887
622.00	37195
623.00	35698
624.00	34221
625.00	32808
626.00	31469
627.00	30210
628.00	29154
629.00	28285
630.00	27624
631.00	27249
632.00	27141
633.00	27383
634.00	27968
635.00	28901
636.00	30134
637.00	31755
638.00	33766
639.00	36059
640.00	38609
641.00	41290
642.00	43859
643.00	46377
644.00	48664
645.00	50488
646.00	51821
647.00	52605
648.00	52926
649.00	52823
650.00	52426
651.00	51906
652.00	51429
653.00	51132
654.00	51156
655.00	51825
656.00	52244
657.00	54619
658.00	56965
659.00	60345
660.00	64814
661.00	70716
662.00	78467
663.00	88525
664.00	1.0151e+05
665.00	1.1785e+05
666.00	1.3798e+05
667.00	1.6139e+05
668.00	1.8779e+05
669.00	2.1635e+05
670.00	2.4591e+05
671.00	2.7574e+05
672.00	3.0429e+05
673.00	3.2920e+05
674.00	3.5012e+05
675.00	3.6604e+05
676.00	3.7615e+05
677.00	3.8001e+05
678.00	3.7732e+05
679.00	3.6814e+05
680.00	3.5302e+05
681.00	3.3258e+05
682.00	3.0778e+05
683.00	2.8023e+05
684.00	2.5085e+05
685.00	2.2165e+05
686.00	1.9307e+05
687.00	1.6639e+05
688.00	1.4204e+05
689.00	1.1998e+05
690.00	1.0078e+05
691.00	84450
692.00	70524
693.00	58914
694.00	49271
695.00	41353
696.00	34817
697.00	29482
698.00	25260
699.00	21733
700.00	18928
701.00	16636
702.00	14785
703.00	13280
704.00	12056
705.00	11049
706.00	10204
707.00	9509.7
708.00	8926.1
709.00	8457.9
710.00	7992.8
711.00	7640.7
712.00	7320.9
713.00	6983.1
714.00	6713.6
715.00	6460.0
716.00	6243.8
717.00	6014.4
718.00	5817.5
719.00	5613.0
720.00	5443.7
721.00	5287.4
722.00	5137.8
723.00	5004.3
724.00	4899.1
725.00	4777.7
726.00	4658.9
727.00	4605.8
728.00	4524.9
729.00	4447.5
730.00	4376.5
731.00	4319.3
732.00	4259.6
733.00	4195.9
734.00	4126.0
735.00	4130.8
736.00	4070.8
737.00	4023.9
738.00	3977.8
739.00	3927.8
740.00	3886.5
741.00	3864.6
742.00	3788.9
743.00	3760.4
744.00	3698.4
745.00	3659.8
746.00	3629.1
747.00	3578.7
748.00	3540.1
749.00	3494.8
750.00	3421.6
751.00	3378.3
752.00	3358.0
753.00	3291.8
754.00	3237.9
755.00	3198.2
756.00	3124.3
757.00	3085.4
758.00	3044.5
759.00	3031.4
760.00	2943.4
761.00	2890.9
762.00	2879.5
763.00	2817.9
764.00	2749.6
765.00	2679.9
766.00	2665.9
767.00	2636.3
768.00	2533.7
769.00	2472.6
770.00	2442.7
771.00	2399.0
772.00	2354.6
773.00	2287.7
774.00	2224.3
775.00	2149.5
776.00	2123.7
777.00	2039.1
778.00	1952.2
779.00	1889.3
780.00	1838.6
781.00	1773.8
782.00	1698.7
783.00	1652.0
784.00	1541.6
785.00	1496.8
786.00	1403.4
787.00	1330.2
788.00	1240.1
789.00	1164.3
790.00	1112.7
791.00	1023.1
792.00	938.82
793.00	880.02
794.00	757.44
795.00	672.81
796.00	639.30
797.00	544.66
798.00	446.50
799.00	370.30
800.00	299.37
