Wavelength (nm)	UroP III (in DMF).abs
300.00	0.023184
301.00	0.025013
302.00	0.028270
303.00	0.030188
304.00	0.033813
305.00	0.036120
306.00	0.038272
307.00	0.040733
308.00	0.042989
309.00	0.045420
310.00	0.047757
311.00	0.050312
312.00	0.052643
313.00	0.054696
314.00	0.056873
315.00	0.059011
316.00	0.061148
317.00	0.063021
318.00	0.064756
319.00	0.067555
320.00	0.069473
321.00	0.071272
322.00	0.073643
323.00	0.075955
324.00	0.077744
325.00	0.080065
326.00	0.081740
327.00	0.083723
328.00	0.085592
329.00	0.088346
330.00	0.089523
331.00	0.091372
332.00	0.093141
333.00	0.094985
334.00	0.096530
335.00	0.098010
336.00	0.099983
337.00	0.10211
338.00	0.10393
339.00	0.10594
340.00	0.10857
341.00	0.11141
342.00	0.11439
343.00	0.11756
344.00	0.12126
345.00	0.12502
346.00	0.12891
347.00	0.13370
348.00	0.13844
349.00	0.14336
350.00	0.14820
351.00	0.15346
352.00	0.15850
353.00	0.16284
354.00	0.16709
355.00	0.17162
356.00	0.17696
357.00	0.18266
358.00	0.18813
359.00	0.19492
360.00	0.20191
361.00	0.20965
362.00	0.21806
363.00	0.22731
364.00	0.23752
365.00	0.24933
366.00	0.26196
367.00	0.27512
368.00	0.28913
369.00	0.30437
370.00	0.31929
371.00	0.33611
372.00	0.35316
373.00	0.37150
374.00	0.38959
375.00	0.40977
376.00	0.42615
377.00	0.44391
378.00	0.45980
379.00	0.47564
380.00	0.48912
381.00	0.50314
382.00	0.51765
383.00	0.53080
384.00	0.54654
385.00	0.56301
386.00	0.58093
387.00	0.60175
388.00	0.62335
389.00	0.64726
390.00	0.67511
391.00	0.70289
392.00	0.73457
393.00	0.76640
394.00	0.79880
395.00	0.83388
396.00	0.86796
397.00	0.90240
398.00	0.93332
399.00	0.95819
400.00	0.97927
401.00	0.99428
402.00	1.0000
403.00	0.99710
404.00	0.98322
405.00	0.95763
406.00	0.92257
407.00	0.87820
408.00	0.82718
409.00	0.77151
410.00	0.71424
411.00	0.65696
412.00	0.59996
413.00	0.54554
414.00	0.49542
415.00	0.44846
416.00	0.40478
417.00	0.36277
418.00	0.32533
419.00	0.29048
420.00	0.25784
421.00	0.22871
422.00	0.20277
423.00	0.18039
424.00	0.16115
425.00	0.14364
426.00	0.12880
427.00	0.11629
428.00	0.10395
429.00	0.094037
430.00	0.083953
431.00	0.076113
432.00	0.070717
433.00	0.065306
434.00	0.057914
435.00	0.054483
436.00	0.050017
437.00	0.045397
438.00	0.041817
439.00	0.037595
440.00	0.036329
441.00	0.033574
442.00	0.030144
443.00	0.028977
444.00	0.026825
445.00	0.025444
446.00	0.025268
447.00	0.023643
448.00	0.022407
449.00	0.021310
450.00	0.020481
451.00	0.019772
452.00	0.019277
453.00	0.018917
454.00	0.018666
455.00	0.017782
456.00	0.017561
457.00	0.017967
458.00	0.016611
459.00	0.017191
460.00	0.016218
461.00	0.016375
462.00	0.016447
463.00	0.017525
464.00	0.015676
465.00	0.016176
466.00	0.016333
467.00	0.017465
468.00	0.018120
469.00	0.017889
470.00	0.018827
471.00	0.019486
472.00	0.020235
473.00	0.019820
474.00	0.020325
475.00	0.020711
476.00	0.021410
477.00	0.022219
478.00	0.022873
479.00	0.024015
480.00	0.025182
481.00	0.025518
482.00	0.026705
483.00	0.028290
484.00	0.028353
485.00	0.031281
486.00	0.033261
487.00	0.035779
488.00	0.038768
489.00	0.038457
490.00	0.039923
491.00	0.042005
492.00	0.045178
493.00	0.046832
494.00	0.050129
495.00	0.053585
496.00	0.057374
497.00	0.061109
498.00	0.065262
499.00	0.067494
500.00	0.069710
501.00	0.070196
502.00	0.071442
503.00	0.070370
504.00	0.070303
505.00	0.068470
506.00	0.067178
507.00	0.063613
508.00	0.060625
509.00	0.057667
510.00	0.054122
511.00	0.049343
512.00	0.045145
513.00	0.040585
514.00	0.035532
515.00	0.032788
516.00	0.029491
517.00	0.026598
518.00	0.024949
519.00	0.023100
520.00	0.022749
521.00	0.022349
522.00	0.022779
523.00	0.022941
524.00	0.024327
525.00	0.025673
526.00	0.027318
527.00	0.029232
528.00	0.031110
529.00	0.033551
530.00	0.035405
531.00	0.038069
532.00	0.040824
533.00	0.043006
534.00	0.045442
535.00	0.048599
536.00	0.050727
537.00	0.051919
538.00	0.051533
539.00	0.049466
540.00	0.046945
541.00	0.043360
542.00	0.038531
543.00	0.034399
544.00	0.029878
545.00	0.025522
546.00	0.022574
547.00	0.019551
548.00	0.016563
549.00	0.015640
550.00	0.014622
551.00	0.014157
552.00	0.013642
553.00	0.013964
554.00	0.014678
555.00	0.016064
556.00	0.016982
557.00	0.019164
558.00	0.021610
559.00	0.023488
560.00	0.025780
561.00	0.027922
562.00	0.030836
563.00	0.033197
564.00	0.035240
565.00	0.036387
566.00	0.037534
567.00	0.037198
568.00	0.036534
569.00	0.035820
570.00	0.032952
571.00	0.031153
572.00	0.029484
573.00	0.028486
574.00	0.025558
575.00	0.023754
576.00	0.023334
577.00	0.021301
578.00	0.017119
579.00	0.018172
580.00	0.015577
581.00	0.013997
582.00	0.0093022
583.00	0.010703
584.00	0.010925
585.00	0.0069216
586.00	0.0069541
587.00	0.0073000
588.00	0.0055909
589.00	0.0061060
590.00	0.0055563
591.00	0.0056585
592.00	0.0058850
593.00	0.0042107
594.00	0.0044323
595.00	0.0050818
596.00	0.0041190
597.00	0.0045297
598.00	0.0046617
599.00	0.0026838
600.00	0.0033781
601.00	0.0031419
602.00	0.0032092
603.00	0.0034954
604.00	0.0027118
605.00	0.0044163
606.00	0.0041751
607.00	0.0046255
608.00	0.0055636
609.00	0.0066162
610.00	0.0072906
611.00	0.0078853
612.00	0.0090026
613.00	0.010846
614.00	0.011869
615.00	0.012752
616.00	0.013686
617.00	0.014773
618.00	0.014243
619.00	0.015326
620.00	0.015104
621.00	0.014609
622.00	0.013885
623.00	0.012893
624.00	0.011826
625.00	0.010509
626.00	0.0090691
627.00	0.0071708
628.00	0.0053221
629.00	0.0045186
630.00	0.0034228
631.00	0.0030159
632.00	0.0021601
633.00	0.0012627
634.00	0.0013566
635.00	0.0016801
636.00	0.0012940
637.00	0.0011855
638.00	0.0013462
639.00	0.0011688
640.00	0.0014610
641.00	0.00092875
642.00	0.0010018
643.00	0.00088700
644.00	0.00096946
645.00	0.0010895
646.00	0.0012366
647.00	0.0012690
648.00	0.0012648
649.00	0.0011928
650.00	0.0010160
651.00	0.0010279
652.00	0.0011896
653.00	0.00094963
654.00	0.0012836
655.00	0.0013535
656.00	0.0014046
657.00	0.0012877
658.00	0.0013513
659.00	0.0010331
660.00	0.00090789
661.00	0.00089745
662.00	0.00086614
663.00	0.00083483
664.00	0.0012648
665.00	0.0013566
666.00	0.0014871
667.00	0.0012523
668.00	0.0014297
669.00	0.0013984
670.00	0.0013462
671.00	0.0012105
672.00	0.0011479
673.00	0.0012836
674.00	0.0012940
675.00	0.0016279
676.00	0.0014714
677.00	0.0016905
678.00	0.0015758
679.00	0.0018575
680.00	0.0015528
681.00	0.0016572
682.00	0.0018679
683.00	0.0015653
684.00	0.0018471
685.00	0.0017427
686.00	0.0017636
687.00	0.0020558
688.00	0.0015653
689.00	0.0019619
690.00	0.0014526
691.00	0.0014766
692.00	0.0017131
693.00	0.0014818
694.00	0.0013529
695.00	0.0013726
696.00	0.0011513
697.00	0.0016565
698.00	0.0012561
699.00	0.0016568
700.00	0.0012657
