Wavelength (nm)	"68, Inorg Chem 2001_5585, F2D"
200.00	
201.00	
202.00	
203.00	
204.00	
205.00	
206.00	
207.00	
208.00	
209.00	
210.00	
211.00	
212.00	
213.00	
214.00	
215.00	
216.00	
217.00	
218.00	
219.00	
220.00	
221.00	
222.00	
223.00	
224.00	
225.00	
226.00	
227.00	
228.00	
229.00	
230.00	
231.00	
232.00	
233.00	
234.00	
235.00	
236.00	
237.00	
238.00	
239.00	
240.00	
241.00	
242.00	
243.00	
244.00	
245.00	
246.00	
247.00	
248.00	
249.00	
250.00	
251.00	
252.00	
253.00	
254.00	
255.00	
256.00	
257.00	
258.00	
259.00	
260.00	
261.00	
262.00	
263.00	
264.00	
265.00	
266.00	
267.00	
268.00	
269.00	
270.00	
271.00	
272.00	
273.00	
274.00	
275.00	
276.00	
277.00	
278.00	
279.00	
280.00	
281.00	
282.00	
283.00	
284.00	
285.00	
286.00	
287.00	
288.00	
289.00	
290.00	
291.00	
292.00	
293.00	
294.00	
295.00	
296.00	
297.00	
298.00	
299.00	
300.00	0.32870
301.00	0.33269
302.00	0.33487
303.00	0.33685
304.00	0.33882
305.00	0.34080
306.00	0.34253
307.00	0.34424
308.00	0.34594
309.00	0.34765
310.00	0.34936
311.00	0.35088
312.00	0.35131
313.00	0.35175
314.00	0.35218
315.00	0.35262
316.00	0.35305
317.00	0.35349
318.00	0.35446
319.00	0.35629
320.00	0.35812
321.00	0.35995
322.00	0.36178
323.00	0.36361
324.00	0.36589
325.00	0.36818
326.00	0.37046
327.00	0.37275
328.00	0.37503
329.00	0.37593
330.00	0.37655
331.00	0.37717
332.00	0.37778
333.00	0.37838
334.00	0.37856
335.00	0.37873
336.00	0.37891
337.00	0.37909
338.00	0.37927
339.00	0.38002
340.00	0.38141
341.00	0.38279
342.00	0.38417
343.00	0.38556
344.00	0.38507
345.00	0.38270
346.00	0.38034
347.00	0.37797
348.00	0.37561
349.00	0.37135
350.00	0.36692
351.00	0.36249
352.00	0.35827
353.00	0.35534
354.00	0.35242
355.00	0.34949
356.00	0.34656
357.00	0.34363
358.00	0.34188
359.00	0.34049
360.00	0.33910
361.00	0.33772
362.00	0.33633
363.00	0.33696
364.00	0.33812
365.00	0.33929
366.00	0.34045
367.00	0.34162
368.00	0.34278
369.00	0.34397
370.00	0.34652
371.00	0.34908
372.00	0.35163
373.00	0.35418
374.00	0.35673
375.00	0.35929
376.00	0.36411
377.00	0.36934
378.00	0.37457
379.00	0.38112
380.00	0.38924
381.00	0.39735
382.00	0.40584
383.00	0.41451
384.00	0.42318
385.00	0.43184
386.00	0.44051
387.00	0.45232
388.00	0.46447
389.00	0.47662
390.00	0.48877
391.00	0.50101
392.00	0.51388
393.00	0.52676
394.00	0.53964
395.00	0.55252
396.00	0.56540
397.00	0.58105
398.00	0.59908
399.00	0.61711
400.00	0.63513
401.00	0.65316
402.00	0.67304
403.00	0.69432
404.00	0.71560
405.00	0.73688
406.00	0.75816
407.00	0.77795
408.00	0.79774
409.00	0.81752
410.00	0.83730
411.00	0.85638
412.00	0.87530
413.00	0.89422
414.00	0.91266
415.00	0.92937
416.00	0.94609
417.00	0.96277
418.00	0.97861
419.00	0.99375
420.00	0.99584
421.00	0.99792
422.00	1.0000
423.00	0.99783
424.00	0.99565
425.00	0.99311
426.00	0.98632
427.00	0.97953
428.00	0.97274
429.00	0.96130
430.00	0.94929
431.00	0.93728
432.00	0.92526
433.00	0.91052
434.00	0.89466
435.00	0.87881
436.00	0.86295
437.00	0.84709
438.00	0.83203
439.00	0.81702
440.00	0.80202
441.00	0.78701
442.00	0.77201
443.00	0.75700
444.00	0.74463
445.00	0.73238
446.00	0.72012
447.00	0.70786
448.00	0.69561
449.00	0.68618
450.00	0.67681
451.00	0.66745
452.00	0.65808
453.00	0.64872
454.00	0.63873
455.00	0.62784
456.00	0.61696
457.00	0.60607
458.00	0.59722
459.00	0.59104
460.00	0.58487
461.00	0.57869
462.00	0.57252
463.00	0.56635
464.00	0.56083
465.00	0.55544
466.00	0.55005
467.00	0.54465
468.00	0.53926
469.00	0.53386
470.00	0.52868
471.00	0.52403
472.00	0.51939
473.00	0.51474
474.00	0.51010
475.00	0.50545
476.00	0.50081
477.00	0.49522
478.00	0.48925
479.00	0.48328
480.00	0.47730
481.00	0.47133
482.00	0.46536
483.00	0.46093
484.00	0.45661
485.00	0.45228
486.00	0.44795
487.00	0.44363
488.00	0.43930
489.00	0.43419
490.00	0.42850
491.00	0.42281
492.00	0.41711
493.00	0.41142
494.00	0.40572
495.00	0.40003
496.00	0.39442
497.00	0.38882
498.00	0.38321
499.00	0.37760
500.00	0.37200
501.00	0.36638
502.00	0.36028
503.00	0.35418
504.00	0.34808
505.00	0.34197
506.00	0.33587
507.00	0.32977
508.00	0.32355
509.00	0.31734
510.00	0.31113
511.00	0.30491
512.00	0.29870
513.00	0.29249
514.00	0.28666
515.00	0.28089
516.00	0.27511
517.00	0.26934
518.00	0.26356
519.00	0.25779
520.00	0.25202
521.00	0.24654
522.00	0.24119
523.00	0.23584
524.00	0.23048
525.00	0.22513
526.00	0.21977
527.00	0.21442
528.00	0.20906
529.00	0.20371
530.00	0.19848
531.00	0.19393
532.00	0.18939
533.00	0.18484
534.00	0.18029
535.00	0.17574
536.00	0.17120
537.00	0.16665
538.00	0.16297
539.00	0.15951
540.00	0.15605
541.00	0.15259
542.00	0.14914
543.00	0.14568
544.00	0.14222
545.00	0.13876
546.00	0.13612
547.00	0.13365
548.00	0.13117
549.00	0.12870
550.00	0.12623
551.00	0.12376
552.00	0.12128
553.00	0.11881
554.00	0.11655
555.00	0.11453
556.00	0.11250
557.00	0.11048
558.00	0.10846
559.00	0.10643
560.00	0.10441
561.00	0.10239
562.00	0.10036
563.00	0.098956
564.00	0.097798
565.00	0.096639
566.00	0.095481
567.00	0.094323
568.00	0.093165
569.00	0.092007
570.00	0.090848
571.00	0.089690
572.00	0.088576
573.00	0.087541
574.00	0.086506
575.00	0.085471
576.00	0.084436
577.00	0.083401
578.00	0.082366
579.00	0.081331
580.00	0.080296
581.00	0.078985
582.00	0.077605
583.00	0.076225
584.00	0.074845
585.00	0.073465
586.00	0.072085
587.00	0.070705
588.00	0.069325
589.00	0.067950
590.00	0.066591
591.00	0.065232
592.00	0.063874
593.00	0.062515
594.00	0.061156
595.00	0.059798
596.00	0.058439
597.00	0.056937
598.00	0.055046
599.00	0.053156
600.00	0.051265
601.00	0.049375
602.00	0.047485
603.00	0.045594
604.00	0.044140
605.00	0.043122
606.00	0.042104
607.00	0.041086
608.00	0.040069
609.00	0.039051
610.00	0.038033
611.00	0.037378
612.00	0.036857
613.00	0.036336
614.00	0.035816
615.00	0.035295
616.00	0.034774
617.00	0.034253
618.00	0.033704
619.00	0.033014
620.00	0.032324
621.00	0.031633
622.00	0.030943
623.00	0.030253
624.00	0.029563
625.00	0.028873
626.00	0.028183
627.00	0.027657
628.00	0.027237
629.00	0.026816
630.00	0.026395
631.00	0.025974
632.00	0.025554
633.00	0.025133
634.00	0.024712
635.00	0.024292
636.00	0.023811
637.00	0.023152
638.00	0.022493
639.00	0.021834
640.00	0.021175
641.00	0.020515
642.00	0.019856
643.00	0.019197
644.00	0.018538
645.00	0.018070
646.00	0.018070
647.00	0.018070
648.00	0.018070
649.00	0.018070
650.00	0.018070
651.00	0.018070
652.00	0.018070
653.00	0.018070
654.00	0.018301
655.00	0.018616
656.00	0.018932
657.00	0.019248
658.00	0.019564
659.00	0.019880
660.00	0.020196
661.00	0.020511
662.00	0.020827
663.00	0.020982
664.00	0.020875
665.00	0.020767
666.00	0.020660
667.00	0.020552
668.00	0.020445
669.00	0.020338
670.00	0.020230
671.00	0.020123
672.00	0.020152
673.00	0.020667
674.00	0.021182
675.00	0.021697
676.00	0.022212
677.00	0.022727
678.00	0.023241
679.00	0.023756
680.00	0.024271
681.00	0.024786
682.00	0.025281
683.00	0.025766
684.00	0.026251
685.00	0.026736
686.00	0.027221
687.00	0.027706
688.00	0.028191
689.00	0.028676
690.00	0.029160
691.00	0.029645
692.00	0.030203
693.00	0.030831
694.00	0.031459
695.00	0.032087
696.00	0.032715
697.00	0.033343
698.00	0.033971
699.00	0.034599
700.00	0.035227
701.00	0.035855
702.00	0.036483
703.00	0.037111
704.00	0.037739
705.00	0.038417
706.00	0.039097
707.00	0.039777
708.00	0.040457
709.00	0.041137
710.00	0.041816
711.00	0.042496
712.00	0.043176
713.00	0.043856
714.00	0.044535
715.00	0.045215
716.00	0.045895
717.00	0.046575
718.00	0.047255
719.00	0.047934
720.00	0.048630
721.00	0.049706
722.00	0.050781
723.00	0.051857
724.00	0.052932
725.00	0.054008
726.00	0.055083
727.00	0.056159
728.00	0.057234
729.00	0.058310
730.00	0.059385
731.00	0.060461
732.00	0.061536
733.00	0.062612
734.00	0.063590
735.00	0.064351
736.00	0.065111
737.00	0.065872
738.00	0.066633
739.00	0.067394
740.00	0.068154
741.00	0.068915
742.00	0.069676
743.00	0.070437
744.00	0.071197
745.00	0.071958
746.00	0.072719
747.00	0.073569
748.00	0.074572
749.00	0.075575
750.00	0.076578
751.00	0.077581
752.00	0.078584
753.00	0.079587
754.00	0.080591
755.00	0.081594
756.00	0.082597
757.00	0.083600
758.00	0.084603
759.00	0.085606
760.00	0.086609
761.00	0.087645
762.00	0.088700
763.00	0.089754
764.00	0.090809
765.00	0.091864
766.00	0.092919
767.00	0.093974
768.00	0.095029
769.00	0.096084
770.00	0.097139
771.00	0.098194
772.00	0.099249
773.00	0.10030
774.00	0.10136
775.00	0.10241
776.00	0.10351
777.00	0.10463
778.00	0.10575
779.00	0.10687
780.00	0.10799
781.00	0.10911
782.00	0.11023
783.00	0.11135
784.00	0.11247
785.00	0.11358
786.00	0.11470
787.00	0.11582
788.00	0.11694
789.00	0.11806
790.00	0.11918
791.00	0.12030
792.00	0.12142
793.00	0.12265
794.00	0.12389
795.00	0.12512
796.00	0.12636
797.00	0.12759
798.00	0.12883
799.00	0.13006
800.00	0.13130
801.00	0.13253
802.00	0.13377
803.00	0.13500
804.00	0.13624
805.00	0.13748
806.00	0.13871
807.00	0.13995
808.00	0.14117
809.00	0.14209
810.00	0.14301
811.00	0.14393
812.00	0.14485
813.00	0.14577
814.00	0.14669
815.00	0.14761
816.00	0.14854
817.00	0.14946
818.00	0.15038
819.00	0.15130
820.00	0.15222
821.00	0.15314
822.00	0.15406
823.00	0.15498
824.00	0.15591
825.00	0.15683
826.00	0.15775
827.00	0.15867
828.00	0.15959
829.00	0.16048
830.00	0.16137
831.00	0.16225
832.00	0.16313
833.00	0.16401
834.00	0.16490
835.00	0.16578
836.00	0.16666
837.00	0.16755
838.00	0.16843
839.00	0.16931
840.00	0.17019
841.00	0.17108
842.00	0.17196
843.00	0.17284
844.00	0.17372
845.00	0.17461
846.00	0.17569
847.00	0.17677
848.00	0.17785
849.00	0.17892
850.00	0.18000
851.00	0.18108
852.00	0.18216
853.00	0.18323
854.00	0.18431
855.00	0.18539
856.00	0.18647
857.00	0.18755
858.00	0.18862
859.00	0.18970
860.00	0.19078
861.00	0.19180
862.00	0.19277
863.00	0.19373
864.00	0.19469
865.00	0.19566
866.00	0.19662
867.00	0.19758
868.00	0.19855
869.00	0.19951
870.00	0.20047
871.00	0.20144
872.00	0.20240
873.00	0.20336
874.00	0.20433
875.00	0.20529
876.00	0.20625
877.00	0.20720
878.00	0.20814
879.00	0.20909
880.00	0.21003
881.00	0.21098
882.00	0.21192
883.00	0.21287
884.00	0.21381
885.00	0.21476
886.00	0.21570
887.00	0.21665
888.00	0.21759
889.00	0.21854
890.00	0.21909
891.00	0.21942
892.00	0.21974
893.00	0.22006
894.00	0.22038
895.00	0.22071
896.00	0.22103
897.00	0.22072
898.00	0.22041
899.00	0.22010
900.00	0.21979
901.00	0.21948
902.00	0.21917
903.00	0.21879
904.00	0.21772
905.00	0.21664
906.00	0.21557
907.00	0.21450
908.00	0.21342
909.00	0.21235
910.00	0.21127
911.00	0.21020
912.00	0.20913
913.00	0.20730
914.00	0.20542
915.00	0.20354
916.00	0.20166
917.00	0.19978
918.00	0.19791
919.00	0.19603
920.00	0.19415
921.00	0.19227
922.00	0.19039
923.00	0.18793
924.00	0.18546
925.00	0.18298
926.00	0.18051
927.00	0.17804
928.00	0.17557
929.00	0.17310
930.00	0.17062
931.00	0.16815
932.00	0.16568
933.00	0.16321
934.00	0.16078
935.00	0.15840
936.00	0.15603
937.00	0.15365
938.00	0.15127
939.00	0.14890
940.00	0.14652
941.00	0.14414
942.00	0.14177
943.00	0.13939
944.00	0.13701
945.00	0.13464
946.00	0.13226
947.00	0.12989
948.00	0.12751
949.00	0.12514
950.00	0.12287
951.00	0.12060
952.00	0.11833
953.00	0.11605
954.00	0.11378
955.00	0.11151
956.00	0.10924
957.00	0.10697
958.00	0.10469
959.00	0.10242
960.00	0.10015
961.00	0.097878
962.00	0.095606
963.00	0.093333
964.00	0.091182
965.00	0.089236
966.00	0.087290
967.00	0.085344
968.00	0.083397
969.00	0.081451
970.00	0.079505
971.00	0.077559
972.00	0.075613
973.00	0.073667
974.00	0.071721
975.00	0.069775
976.00	0.067860
977.00	0.066053
978.00	0.064246
979.00	0.062439
980.00	0.060632
981.00	0.058825
982.00	0.057017
983.00	0.055210
984.00	0.053403
985.00	0.051596
986.00	0.049789
987.00	0.048234
988.00	0.046714
989.00	0.045193
990.00	0.043673
991.00	0.042152
992.00	0.040632
993.00	0.039111
994.00	0.037634
995.00	0.036506
996.00	0.035378
997.00	0.034250
998.00	0.033123
999.00	0.031995
1000.0	0.030867
1001.0	
1002.0	
1003.0	
1004.0	
1005.0	
1006.0	
1007.0	
1008.0	
1009.0	
1010.0	
1011.0	
1012.0	
1013.0	
1014.0	
1015.0	
1016.0	
1017.0	
1018.0	
1019.0	
1020.0	
1021.0	
1022.0	
1023.0	
1024.0	
1025.0	
1026.0	
1027.0	
1028.0	
1029.0	
1030.0	
1031.0	
1032.0	
1033.0	
1034.0	
1035.0	
1036.0	
1037.0	
1038.0	
1039.0	
1040.0	
1041.0	
1042.0	
1043.0	
1044.0	
1045.0	
1046.0	
1047.0	
1048.0	
1049.0	
1050.0	
1051.0	
1052.0	
1053.0	
1054.0	
1055.0	
1056.0	
1057.0	
1058.0	
1059.0	
1060.0	
1061.0	
1062.0	
1063.0	
1064.0	
1065.0	
1066.0	
1067.0	
1068.0	
1069.0	
1070.0	
1071.0	
1072.0	
1073.0	
1074.0	
1075.0	
1076.0	
1077.0	
1078.0	
1079.0	
1080.0	
1081.0	
1082.0	
1083.0	
1084.0	
1085.0	
1086.0	
1087.0	
1088.0	
1089.0	
1090.0	
1091.0	
1092.0	
1093.0	
1094.0	
1095.0	
1096.0	
1097.0	
1098.0	
1099.0	
1100.0	
1101.0	
1102.0	
1103.0	
1104.0	
1105.0	
1106.0	
1107.0	
1108.0	
1109.0	
1110.0	
1111.0	
1112.0	
1113.0	
1114.0	
1115.0	
1116.0	
1117.0	
1118.0	
1119.0	
1120.0	
1121.0	
1122.0	
1123.0	
1124.0	
1125.0	
1126.0	
1127.0	
1128.0	
1129.0	
1130.0	
1131.0	
1132.0	
1133.0	
1134.0	
1135.0	
1136.0	
1137.0	
1138.0	
1139.0	
1140.0	
1141.0	
1142.0	
1143.0	
1144.0	
1145.0	
1146.0	
1147.0	
1148.0	
1149.0	
1150.0	
1151.0	
1152.0	
1153.0	
1154.0	
1155.0	
1156.0	
1157.0	
1158.0	
1159.0	
1160.0	
1161.0	
1162.0	
1163.0	
1164.0	
1165.0	
1166.0	
1167.0	
1168.0	
1169.0	
1170.0	
1171.0	
1172.0	
1173.0	
1174.0	
1175.0	
1176.0	
1177.0	
1178.0	
1179.0	
1180.0	
1181.0	
1182.0	
1183.0	
1184.0	
1185.0	
1186.0	
1187.0	
1188.0	
1189.0	
1190.0	
1191.0	
1192.0	
1193.0	
1194.0	
1195.0	
1196.0	
1197.0	
1198.0	
1199.0	
1200.0	
