Wavelength (nm)	E18 abs e
200.00	34672
201.00	35995
202.00	35861
203.00	34847
204.00	33775
205.00	33054
206.00	32471
207.00	31929
208.00	31542
209.00	31508
210.00	31613
211.00	31728
212.00	31889
213.00	32072
214.00	32315
215.00	32542
216.00	32812
217.00	33092
218.00	33234
219.00	33270
220.00	33141
221.00	32988
222.00	32786
223.00	32247
224.00	31336
225.00	30238
226.00	29236
227.00	28669
228.00	28157
229.00	27279
230.00	26134
231.00	25304
232.00	24980
233.00	24999
234.00	25185
235.00	25517
236.00	26115
237.00	26902
238.00	27058
239.00	25578
240.00	22212
241.00	17934
242.00	14000
243.00	10837
244.00	8568.8
245.00	7031.0
246.00	5991.2
247.00	5319.0
248.00	4891.8
249.00	4625.4
250.00	4465.3
251.00	4384.9
252.00	4357.0
253.00	4382.0
254.00	4432.2
255.00	4505.9
256.00	4592.5
257.00	4656.6
258.00	4730.8
259.00	4790.3
260.00	4875.2
261.00	5002.8
262.00	5105.1
263.00	5193.2
264.00	5251.9
265.00	5307.7
266.00	5368.5
267.00	5470.3
268.00	5567.4
269.00	5664.0
270.00	5773.1
271.00	5905.5
272.00	6068.8
273.00	6248.5
274.00	6450.6
275.00	6668.1
276.00	6912.4
277.00	7185.6
278.00	7470.8
279.00	7775.5
280.00	8124.1
281.00	8495.7
282.00	8882.3
283.00	9278.5
284.00	9660.3
285.00	9994.8
286.00	10241
287.00	10376
288.00	10422
289.00	10361
290.00	10250
291.00	10087
292.00	9904.5
293.00	9757.3
294.00	9618.9
295.00	9497.4
296.00	9359.9
297.00	9231.0
298.00	9090.2
299.00	8948.7
300.00	8814.2
301.00	8673.7
302.00	8503.6
303.00	8311.6
304.00	8051.5
305.00	7755.9
306.00	7426.2
307.00	7063.5
308.00	6674.1
309.00	6263.5
310.00	5893.7
311.00	5532.3
312.00	5199.7
313.00	4903.7
314.00	4636.1
315.00	4366.5
316.00	4137.7
317.00	3939.4
318.00	3746.3
319.00	3580.6
320.00	3416.7
321.00	3276.3
322.00	3137.4
323.00	3000.5
324.00	2875.8
325.00	2740.3
326.00	2628.9
327.00	2521.0
328.00	2412.6
329.00	2298.4
330.00	2189.1
331.00	2080.3
332.00	1969.2
333.00	1854.5
334.00	1737.2
335.00	1614.0
336.00	1497.4
337.00	1376.1
338.00	1247.8
339.00	1136.0
340.00	1022.1
341.00	910.23
342.00	797.01
343.00	703.83
344.00	635.52
345.00	568.97
346.00	513.09
347.00	457.44
348.00	418.99
349.00	384.97
350.00	366.33
351.00	332.08
352.00	335.19
353.00	333.98
354.00	322.36
355.00	334.70
356.00	314.02
357.00	331.51
358.00	334.93
359.00	346.35
360.00	377.58
361.00	393.77
362.00	417.76
363.00	446.23
364.00	476.40
365.00	509.50
366.00	547.81
367.00	607.66
368.00	654.71
369.00	706.33
370.00	758.53
371.00	839.54
372.00	918.78
373.00	968.87
374.00	1051.4
375.00	1166.2
376.00	1244.9
377.00	1371.1
378.00	1472.0
379.00	1552.2
380.00	1682.5
381.00	1793.1
382.00	1912.8
383.00	2041.1
384.00	2189.2
385.00	2323.4
386.00	2505.2
387.00	2638.3
388.00	2851.9
389.00	3024.3
390.00	3222.6
391.00	3439.3
392.00	3704.5
393.00	3952.5
394.00	4198.4
395.00	4468.6
396.00	4749.1
397.00	5007.4
398.00	5293.7
399.00	5539.4
400.00	5769.6
401.00	5986.5
402.00	6185.7
403.00	6385.3
404.00	6568.7
405.00	6743.5
406.00	6919.7
407.00	7086.9
408.00	7245.6
409.00	7480.6
410.00	7711.6
411.00	7990.6
412.00	8308.8
413.00	8620.0
414.00	8940.1
415.00	9306.7
416.00	9672.4
417.00	10069
418.00	10463
419.00	10804
420.00	11118
421.00	11406
422.00	11571
423.00	11687
424.00	11668
425.00	11548
426.00	11341
427.00	11006
428.00	10676
429.00	10249
430.00	9806.3
431.00	9424.2
432.00	9028.5
433.00	8629.7
434.00	8339.6
435.00	8103.6
436.00	7888.6
437.00	7763.7
438.00	7685.0
439.00	7693.4
440.00	7740.0
441.00	7822.1
442.00	7972.5
443.00	8178.4
444.00	8416.5
445.00	8677.6
446.00	9004.4
447.00	9346.7
448.00	9719.0
449.00	10157
450.00	10601
451.00	11093
452.00	11631
453.00	12186
454.00	12768
455.00	13448
456.00	14124
457.00	14899
458.00	15671
459.00	16473
460.00	17284
461.00	18198
462.00	19129
463.00	20198
464.00	21248
465.00	22255
466.00	23280
467.00	24343
468.00	25462
469.00	26512
470.00	27541
471.00	28726
472.00	29771
473.00	30875
474.00	31831
475.00	32832
476.00	33596
477.00	34621
478.00	35526
479.00	36344
480.00	37154
481.00	38018
482.00	38918
483.00	39880
484.00	40830
485.00	42213
486.00	43008
487.00	43625
488.00	44839
489.00	46032
490.00	47508
491.00	48641
492.00	49781
493.00	51188
494.00	52316
495.00	53523
496.00	54774
497.00	55628
498.00	56690
499.00	57499
500.00	57912
501.00	58384
502.00	58500
503.00	58260
504.00	57784
505.00	57207
506.00	56264
507.00	54939
508.00	53403
509.00	51597
510.00	49412
511.00	47324
512.00	44949
513.00	42560
514.00	40096
515.00	37676
516.00	35076
517.00	32745
518.00	30337
519.00	28027
520.00	25925
521.00	23910
522.00	22068
523.00	20195
524.00	18560
525.00	17012
526.00	15587
527.00	14343
528.00	13120
529.00	11993
530.00	11032
531.00	10057
532.00	9158.6
533.00	8390.1
534.00	7700.9
535.00	7022.7
536.00	6443.2
537.00	5869.8
538.00	5333.7
539.00	4881.3
540.00	4438.0
541.00	4056.5
542.00	3697.4
543.00	3374.2
544.00	3073.6
545.00	2813.7
546.00	2554.8
547.00	2305.4
548.00	2119.7
549.00	1926.8
550.00	1741.2
551.00	1597.9
552.00	1450.5
553.00	1342.2
554.00	1221.9
555.00	1102.2
556.00	1008.3
557.00	893.58
558.00	829.39
559.00	756.17
560.00	699.71
561.00	635.90
562.00	588.44
563.00	521.43
564.00	492.65
565.00	456.64
566.00	387.93
567.00	370.04
568.00	337.14
569.00	309.13
570.00	283.51
571.00	245.06
572.00	231.22
573.00	207.27
574.00	192.22
575.00	180.58
576.00	160.27
577.00	152.25
578.00	140.34
579.00	133.56
580.00	113.28
581.00	107.82
582.00	105.57
583.00	94.528
584.00	89.150
585.00	81.874
586.00	78.682
587.00	76.266
588.00	72.729
589.00	71.722
590.00	52.338
591.00	60.765
592.00	62.203
593.00	55.502
594.00	43.308
595.00	43.912
596.00	57.774
597.00	50.814
598.00	62.749
599.00	49.865
600.00	51.533
