Wavelength (nm)	P03  abs e
350.00	11637
350.25	11622
350.50	11624
350.75	11445
351.00	11337
351.25	11180
351.50	11251
351.75	11093
352.00	11174
352.25	11332
352.50	11094
352.75	11101
353.00	11018
353.25	10868
353.50	10857
353.75	10884
354.00	10772
354.25	10601
354.50	10634
354.75	10496
355.00	10494
355.25	10402
355.50	10285
355.75	10265
356.00	10149
356.25	9948.4
356.50	9998.8
356.75	10086
357.00	9800.7
357.25	9730.4
357.50	9691.0
357.75	9565.6
358.00	9646.3
358.25	9632.8
358.50	9380.7
358.75	9566.9
359.00	9307.9
359.25	9287.0
359.50	9179.5
359.75	9056.5
360.00	8933.1
360.25	8955.1
360.50	8795.3
360.75	8856.6
361.00	8804.9
361.25	8524.6
361.50	8600.4
361.75	8583.7
362.00	8582.0
362.25	8391.7
362.50	8428.4
362.75	8192.4
363.00	8122.8
363.25	8107.8
363.50	8115.1
363.75	8016.0
364.00	7794.3
364.25	7764.0
364.50	7811.8
364.75	7768.1
365.00	7585.5
365.25	7663.0
365.50	7654.5
365.75	7475.2
366.00	7347.3
366.25	7286.7
366.50	7224.7
366.75	7226.7
367.00	7099.3
367.25	7021.4
367.50	7079.1
367.75	6950.5
368.00	6937.4
368.25	6878.8
368.50	6782.6
368.75	6785.8
369.00	6640.2
369.25	6670.9
369.50	6631.2
369.75	6483.6
370.00	6475.0
370.25	6278.1
370.50	6173.5
370.75	6159.0
371.00	6043.7
371.25	6154.7
371.50	6068.4
371.75	6001.3
372.00	6042.3
372.25	5892.0
372.50	5722.1
372.75	5846.7
373.00	5739.8
373.25	5709.1
373.50	5500.0
373.75	5614.0
374.00	5530.6
374.25	5604.8
374.50	5450.3
374.75	5339.4
375.00	5415.5
375.25	5373.5
375.50	5383.6
375.75	5377.0
376.00	5144.4
376.25	5285.6
376.50	5184.2
376.75	5148.4
377.00	5102.5
377.25	5037.9
377.50	5228.3
377.75	4902.6
378.00	5015.1
378.25	4897.8
378.50	4943.7
378.75	4779.6
379.00	4861.1
379.25	4786.5
379.50	4555.1
379.75	4687.3
380.00	4757.9
380.25	4725.3
380.50	4562.5
380.75	4663.4
381.00	4548.7
381.25	4499.5
381.50	4500.4
381.75	4518.5
382.00	4501.3
382.25	4545.8
382.50	4483.1
382.75	4329.0
383.00	4328.9
383.25	4335.9
383.50	4369.7
383.75	4393.9
384.00	4242.7
384.25	4226.3
384.50	4263.6
384.75	4195.7
385.00	4044.5
385.25	4034.7
385.50	4131.9
385.75	3973.2
386.00	4010.0
386.25	3951.8
386.50	3968.0
386.75	4036.7
387.00	4053.0
387.25	3951.6
387.50	3847.7
387.75	3920.3
388.00	3803.5
388.25	3730.4
388.50	3734.0
388.75	3736.3
389.00	3747.9
389.25	3673.2
389.50	3636.0
389.75	3533.4
390.00	3440.7
390.25	3540.5
390.50	3487.1
390.75	3458.1
391.00	3319.8
391.25	3243.2
391.50	3361.5
391.75	3288.9
392.00	3200.1
392.25	3235.2
392.50	3174.8
392.75	3159.9
393.00	3024.6
393.25	3031.8
393.50	2965.4
393.75	2959.0
394.00	2875.3
394.25	2812.0
394.50	2828.5
394.75	2782.8
395.00	2674.2
395.25	2499.3
395.50	2718.7
395.75	2542.4
396.00	2383.9
396.25	2383.8
396.50	2379.1
396.75	2306.0
397.00	2282.2
397.25	2328.9
397.50	2333.2
397.75	2162.6
398.00	2105.0
398.25	2134.6
398.50	2189.4
398.75	2007.5
399.00	1941.2
399.25	2005.5
399.50	2047.2
399.75	1736.3
400.00	1923.2
400.25	1787.1
400.50	1810.1
400.75	1714.2
401.00	1670.4
401.25	1713.0
401.50	1541.5
401.75	1713.1
402.00	1667.6
402.25	1618.5
402.50	1536.2
402.75	1555.0
403.00	1554.2
403.25	1555.0
403.50	1539.7
403.75	1488.2
404.00	1396.0
404.25	1355.5
404.50	1264.7
404.75	1289.4
405.00	1296.5
405.25	1214.9
405.50	1335.7
405.75	1194.2
406.00	1256.8
406.25	1116.6
406.50	1212.6
406.75	1192.1
407.00	1138.5
407.25	1165.1
407.50	1152.8
407.75	972.97
408.00	1089.5
408.25	1163.3
408.50	1074.9
408.75	1000.9
409.00	1093.0
409.25	988.80
409.50	1019.4
409.75	939.45
410.00	977.54
410.25	940.10
410.50	1108.1
410.75	1034.9
411.00	996.71
411.25	1016.6
411.50	1013.8
411.75	957.76
412.00	978.40
412.25	956.50
412.50	940.20
412.75	992.31
413.00	946.24
413.25	817.26
413.50	884.41
413.75	941.57
414.00	922.03
414.25	953.84
414.50	901.77
414.75	889.22
415.00	1011.9
415.25	925.44
415.50	835.23
415.75	1025.6
416.00	883.32
416.25	874.66
416.50	940.65
416.75	1023.5
417.00	992.00
417.25	1002.4
417.50	926.25
417.75	984.36
418.00	957.49
418.25	1030.9
418.50	992.11
418.75	970.52
419.00	984.23
419.25	965.27
419.50	945.49
419.75	968.47
420.00	978.64
420.25	1022.9
420.50	1037.8
420.75	1104.0
421.00	1019.3
421.25	1096.7
421.50	1091.5
421.75	1132.5
422.00	1093.4
422.25	1173.2
422.50	1093.5
422.75	1165.4
423.00	1140.3
423.25	1212.2
423.50	1160.2
423.75	1141.8
424.00	1113.6
424.25	1183.9
424.50	1255.0
424.75	1294.0
425.00	1270.4
425.25	1310.0
425.50	1245.1
425.75	1340.5
426.00	1399.0
426.25	1246.3
426.50	1333.8
426.75	1288.2
427.00	1295.1
427.25	1316.4
427.50	1389.4
427.75	1405.8
428.00	1370.5
428.25	1454.6
428.50	1401.2
428.75	1405.8
429.00	1464.0
429.25	1431.7
429.50	1450.5
429.75	1563.0
430.00	1494.1
430.25	1528.9
430.50	1601.1
430.75	1573.9
431.00	1505.1
431.25	1664.0
431.50	1611.6
431.75	1638.0
432.00	1697.2
432.25	1801.2
432.50	1673.8
432.75	1776.5
433.00	1789.5
433.25	1699.7
433.50	1824.2
433.75	1799.9
434.00	1871.3
434.25	1956.9
434.50	1853.3
434.75	2005.4
435.00	1938.1
435.25	2005.9
435.50	2053.6
435.75	2015.8
436.00	2096.4
436.25	2154.9
436.50	2225.9
436.75	2196.1
437.00	2177.6
437.25	2184.7
437.50	2328.7
437.75	2343.8
438.00	2403.4
438.25	2431.3
438.50	2344.7
438.75	2482.8
439.00	2561.6
439.25	2499.6
439.50	2653.9
439.75	2602.9
440.00	2685.4
440.25	2693.1
440.50	2710.0
440.75	2771.0
441.00	2803.5
441.25	2912.5
441.50	2893.0
441.75	2942.2
442.00	3017.1
442.25	2991.2
442.50	3092.8
442.75	3149.4
443.00	3151.3
443.25	3146.7
443.50	3293.6
443.75	3361.7
444.00	3389.6
444.25	3358.0
444.50	3358.6
444.75	3484.4
445.00	3563.5
445.25	3562.1
445.50	3621.6
445.75	3730.9
446.00	3733.2
446.25	3713.6
446.50	3845.8
446.75	3858.6
447.00	3865.1
447.25	3955.8
447.50	4108.7
447.75	4082.3
448.00	4147.8
448.25	4244.8
448.50	4267.1
448.75	4347.5
449.00	4411.7
449.25	4531.3
449.50	4446.7
449.75	4618.4
450.00	4714.8
450.25	4698.1
450.50	4797.6
450.75	4786.8
451.00	4968.9
451.25	4973.2
451.50	4959.9
451.75	5091.0
452.00	5220.6
452.25	5190.0
452.50	5214.5
452.75	5403.7
453.00	5417.7
453.25	5480.6
453.50	5502.7
453.75	5592.0
454.00	5653.1
454.25	5767.4
454.50	5801.7
454.75	5828.4
455.00	5955.8
455.25	5968.8
455.50	6003.3
455.75	6141.1
456.00	6251.4
456.25	6219.2
456.50	6386.2
456.75	6407.0
457.00	6586.8
457.25	6599.7
457.50	6728.2
457.75	6833.1
458.00	6931.5
458.25	7006.3
458.50	7169.2
458.75	7257.6
459.00	7349.2
459.25	7435.5
459.50	7576.4
459.75	7684.3
460.00	7797.0
460.25	7871.4
460.50	8083.2
460.75	8195.8
461.00	8337.1
461.25	8444.8
461.50	8661.6
461.75	8671.7
462.00	8909.5
462.25	8977.0
462.50	9203.1
462.75	9369.8
463.00	9445.4
463.25	9631.5
463.50	9744.4
463.75	9967.3
464.00	10165
464.25	10367
464.50	10476
464.75	10706
465.00	10846
465.25	11074
465.50	11184
465.75	11343
466.00	11553
466.25	11788
466.50	11906
466.75	12174
467.00	12347
467.25	12464
467.50	12831
467.75	12969
468.00	13167
468.25	13377
468.50	13641
468.75	13835
469.00	14072
469.25	14215
469.50	14410
469.75	14659
470.00	14937
470.25	15106
470.50	15341
470.75	15548
471.00	15685
471.25	15979
471.50	16142
471.75	16318
472.00	16524
472.25	16872
472.50	16977
472.75	17259
473.00	17445
473.25	17596
473.50	17743
473.75	17956
474.00	18181
474.25	18340
474.50	18510
474.75	18774
475.00	18941
475.25	19166
475.50	19452
475.75	19601
476.00	19864
476.25	19960
476.50	20250
476.75	20355
477.00	20556
477.25	20676
477.50	20787
477.75	20960
478.00	21111
478.25	21213
478.50	21334
478.75	21372
479.00	21493
479.25	21606
479.50	21804
479.75	21942
480.00	21982
480.25	22133
480.50	22175
480.75	22391
481.00	22485
481.25	22505
481.50	22543
481.75	22710
482.00	22821
482.25	22900
482.50	23053
482.75	23129
483.00	23236
483.25	23373
483.50	23448
483.75	23585
484.00	23719
484.25	23869
484.50	23991
484.75	24095
485.00	24205
485.25	24429
485.50	24484
485.75	24704
486.00	24866
486.25	25036
486.50	25313
486.75	25428
487.00	25685
487.25	25840
487.50	26090
487.75	26340
488.00	26551
488.25	26871
488.50	27217
488.75	27427
489.00	27793
489.25	28096
489.50	28501
489.75	28748
490.00	29323
490.25	29654
490.50	30098
490.75	30370
491.00	30935
491.25	31307
491.50	31867
491.75	32317
492.00	33002
492.25	33298
492.50	33951
492.75	34562
493.00	35041
493.25	35676
493.50	36258
493.75	36708
494.00	37344
494.25	37928
494.50	38232
494.75	38510
495.00	38974
495.25	39569
495.50	40306
495.75	40835
496.00	41505
496.25	42133
496.50	42789
496.75	43530
497.00	44024
497.25	44762
497.50	45429
497.75	45924
498.00	46646
498.25	47000
498.50	47697
498.75	48398
499.00	49010
499.25	49260
499.50	49764
499.75	50455
500.00	50936
500.25	51358
500.50	51611
500.75	52155
501.00	52504
501.25	52816
501.50	53076
501.75	53122
502.00	53431
502.25	53568
502.50	53664
502.75	54000
503.00	53980
503.25	53718
503.50	53932
503.75	53719
504.00	53703
504.25	53589
504.50	53271
504.75	53254
505.00	53060
505.25	52755
505.50	52225
505.75	51872
506.00	51541
506.25	51036
506.50	50476
506.75	50136
507.00	49623
507.25	48892
507.50	48336
507.75	47721
508.00	46953
508.25	46433
508.50	45744
508.75	45033
509.00	44263
509.25	43483
509.50	42820
509.75	41836
510.00	40900
510.25	40229
510.50	39330
510.75	38393
511.00	37641
511.25	36737
511.50	36098
511.75	35042
512.00	34086
512.25	33321
512.50	32455
512.75	31564
513.00	30662
513.25	30042
513.50	29157
513.75	28248
514.00	27436
514.25	26614
514.50	25978
514.75	25083
515.00	24256
515.25	23290
515.50	22323
515.75	21415
516.00	20608
516.25	19749
516.50	19130
516.75	18332
517.00	17850
517.25	17218
517.50	16614
517.75	16013
518.00	15494
518.25	14852
518.50	14485
518.75	13887
519.00	13350
519.25	12891
519.50	12487
519.75	12005
520.00	11563
520.25	11176
520.50	10714
520.75	10207
521.00	9852.5
521.25	9529.4
521.50	9180.5
521.75	8900.1
522.00	8465.4
522.25	8110.0
522.50	7809.7
522.75	7484.5
523.00	7321.6
523.25	6887.8
523.50	6677.5
523.75	6399.2
524.00	6200.1
524.25	5909.2
524.50	5618.9
524.75	5443.2
525.00	5259.2
525.25	5043.7
525.50	4805.7
525.75	4643.7
526.00	4369.9
526.25	4162.4
526.50	4055.9
526.75	3789.6
527.00	3709.1
527.25	3576.3
527.50	3447.2
527.75	3342.0
528.00	3163.5
528.25	3008.5
528.50	2942.0
528.75	2753.8
529.00	2565.2
529.25	2479.3
529.50	2445.9
529.75	2367.6
530.00	2252.7
530.25	2156.2
530.50	2074.1
530.75	2004.9
531.00	1894.3
531.25	1779.4
531.50	1770.6
531.75	1681.8
532.00	1582.9
532.25	1546.1
532.50	1493.5
532.75	1416.5
533.00	1362.6
533.25	1300.9
533.50	1221.4
533.75	1152.3
534.00	1135.5
534.25	1092.7
534.50	1116.4
534.75	1056.7
535.00	964.01
535.25	990.54
535.50	929.94
535.75	887.45
536.00	790.73
536.25	843.08
536.50	813.78
536.75	731.53
537.00	753.08
537.25	724.95
537.50	688.19
537.75	645.01
538.00	653.78
538.25	580.29
538.50	564.22
538.75	555.22
539.00	588.81
539.25	537.08
539.50	539.23
539.75	448.38
540.00	423.82
540.25	402.89
540.50	458.71
540.75	384.44
541.00	434.50
541.25	328.99
541.50	343.89
541.75	324.21
542.00	284.14
542.25	325.27
542.50	304.19
542.75	359.37
543.00	319.78
543.25	256.65
543.50	233.02
543.75	282.03
544.00	211.30
544.25	182.99
544.50	297.34
544.75	225.55
545.00	203.52
545.25	261.33
545.50	238.85
545.75	185.65
546.00	161.99
546.25	194.45
546.50	189.37
546.75	169.66
547.00	179.14
547.25	170.24
547.50	203.11
547.75	143.16
548.00	176.65
548.25	122.09
548.50	153.26
548.75	85.767
549.00	99.852
549.25	125.74
549.50	121.68
549.75	86.245
550.00	139.44
550.25	163.35
550.50	91.156
550.75	130.68
551.00	148.07
551.25	94.736
551.50	58.281
551.75	58.963
552.00	75.980
552.25	63.362
552.50	101.25
552.75	72.502
553.00	44.163
553.25	103.88
553.50	99.715
553.75	45.527
554.00	133.72
554.25	90.235
554.50	29.294
554.75	70.558
555.00	85.017
555.25	97.260
555.50	108.92
555.75	103.13
556.00	60.805
556.25	32.943
556.50	12.584
556.75	37.547
557.00	116.15
557.25	77.446
557.50	57.121
557.75	78.879
558.00	55.519
558.25	50.608
558.50	33.966
558.75	32.295
559.00	66.227
559.25	127.61
559.50	37.547
559.75	55.689
560.00	13.505
560.25	44.981
560.50	70.626
560.75	139.41
561.00	24.110
561.25	17.017
561.50	113.36
561.75	56.474
562.00	71.547
562.25	37.478
562.50	61.009
562.75	33.625
563.00	74.786
563.25	76.082
563.50	70.251
563.75	40.548
564.00	54.632
564.25	88.666
564.50	64.249
564.75	49.789
565.00	68.819
565.25	49.176
565.50	17.972
565.75	49.789
566.00	21.484
566.25	80.379
566.50	46.447
566.75	24.383
567.00	52.381
567.25	-25.031
567.50	51.119
567.75	-17.904
568.00	15.448
568.25	15.210
568.50	58.451
568.75	19.643
569.00	47.675
569.25	-2.3872
569.50	1.9438
569.75	77.753
570.00	59.645
570.25	60.873
570.50	76.901
570.75	43.856
571.00	-4.9789
571.25	-21.519
571.50	24.827
571.75	15.039
572.00	89.144
572.25	-41.605
572.50	85.290
572.75	75.946
573.00	0.51154
573.25	-7.8094
573.50	82.698
573.75	34.716
574.00	62.680
574.25	8.4233
574.50	48.187
574.75	-6.3430
575.00	72.843
575.25	79.186
575.50	-9.2417
575.75	33.693
576.00	-18.347
576.25	23.872
576.50	47.061
576.75	60.498
577.00	5.6269
577.25	78.845
577.50	-9.3099
577.75	79.561
578.00	78.231
578.25	12.891
578.50	28.885
578.75	28.885
579.00	104.76
579.25	50.471
579.50	-16.267
579.75	28.032
580.00	115.91
580.25	109.54
580.50	28.714
580.75	86.006
581.00	23.565
581.25	103.43
581.50	7.8776
581.75	45.595
582.00	43.685
582.25	8.7302
582.50	101.25
582.75	-13.846
583.00	27.043
583.25	78.197
583.50	90.576
583.75	-18.040
584.00	74.411
584.25	103.91
584.50	117.14
584.75	18.074
585.00	47.948
585.25	72.945
585.50	56.269
585.75	58.656
586.00	56.474
586.25	12.413
586.50	-0.34102
586.75	27.793
587.00	34.546
587.25	37.410
587.50	21.962
587.75	35.876
588.00	43.924
588.25	57.156
588.50	17.699
588.75	65.715
589.00	84.506
589.25	106.54
589.50	41.230
589.75	64.283
590.00	109.54
590.25	-11.117
590.50	80.584
590.75	82.971
591.00	55.075
591.25	99.272
591.50	77.105
591.75	60.395
592.00	58.656
592.25	56.371
592.50	86.449
592.75	52.279
593.00	80.857
593.25	64.692
593.50	108.92
593.75	0.10231
594.00	22.678
594.25	102.14
594.50	31.613
594.75	36.762
595.00	35.296
595.25	58.247
595.50	26.157
595.75	53.370
596.00	77.276
596.25	65.886
596.50	98.999
596.75	40.173
597.00	39.593
597.25	27.452
597.50	92.042
597.75	19.848
598.00	32.568
598.25	97.294
598.50	-8.3210
598.75	75.503
599.00	72.809
599.25	52.654
599.50	90.030
599.75	15.517
600.00	75.162
