Wavelength (nm)	I08 abs e
200.00	11244
201.00	10806
202.00	9985.9
203.00	9084.7
204.00	8338.7
205.00	7748.1
206.00	7288.0
207.00	6970.4
208.00	6766.3
209.00	6644.1
210.00	6589.9
211.00	6571.4
212.00	6570.3
213.00	6569.1
214.00	6569.5
215.00	6546.5
216.00	6499.1
217.00	6419.8
218.00	6320.9
219.00	6198.4
220.00	6045.4
221.00	5889.4
222.00	5736.6
223.00	5604.5
224.00	5510.2
225.00	5469.2
226.00	5504.8
227.00	5613.0
228.00	5811.5
229.00	6078.1
230.00	6419.5
231.00	6814.9
232.00	7244.7
233.00	7717.0
234.00	8203.4
235.00	8711.3
236.00	9227.4
237.00	9765.9
238.00	10315
239.00	10873
240.00	11453
241.00	12050
242.00	12648
243.00	13256
244.00	13862
245.00	14447
246.00	15021
247.00	15571
248.00	16093
249.00	16574
250.00	17019
251.00	17418
252.00	17761
253.00	18050
254.00	18272
255.00	18430
256.00	18537
257.00	18602
258.00	18670
259.00	18776
260.00	18964
261.00	19288
262.00	19765
263.00	20441
264.00	21319
265.00	22421
266.00	23745
267.00	25270
268.00	26976
269.00	28874
270.00	30923
271.00	33039
272.00	35190
273.00	37302
274.00	39292
275.00	41004
276.00	42394
277.00	43317
278.00	43700
279.00	43532
280.00	42743
281.00	41398
282.00	39578
283.00	37405
284.00	35041
285.00	32604
286.00	30215
287.00	27954
288.00	25891
289.00	24044
290.00	22386
291.00	20944
292.00	19663
293.00	18501
294.00	17446
295.00	16478
296.00	15577
297.00	14727
298.00	13923
299.00	13167
300.00	12454
301.00	11788
302.00	11165
303.00	10571
304.00	10023
305.00	9503.7
306.00	9011.5
307.00	8534.4
308.00	8090.3
309.00	7667.6
310.00	7266.0
311.00	6887.8
312.00	6535.1
313.00	6221.7
314.00	5932.1
315.00	5664.9
316.00	5413.6
317.00	5189.0
318.00	4970.9
319.00	4766.4
320.00	4578.8
321.00	4393.2
322.00	4224.1
323.00	4061.9
324.00	3927.3
325.00	3799.2
326.00	3692.4
327.00	3603.6
328.00	3536.4
329.00	3485.3
330.00	3441.5
331.00	3409.7
332.00	3386.0
333.00	3365.3
334.00	3342.5
335.00	3320.6
336.00	3298.4
337.00	3275.6
338.00	3253.8
339.00	3231.9
340.00	3218.2
341.00	3205.7
342.00	3195.7
343.00	3190.4
344.00	3179.0
345.00	3164.9
346.00	3134.6
347.00	3084.5
348.00	3013.3
349.00	2906.1
350.00	2771.3
351.00	2616.2
352.00	2443.6
353.00	2254.6
354.00	2071.8
355.00	1890.1
356.00	1726.6
357.00	1586.2
358.00	1462.6
359.00	1359.4
360.00	1273.6
361.00	1200.5
362.00	1145.3
363.00	1103.2
364.00	1077.5
365.00	1061.7
366.00	1062.3
367.00	1064.6
368.00	1073.2
369.00	1091.2
370.00	1116.3
371.00	1142.2
372.00	1174.4
373.00	1204.1
374.00	1242.3
375.00	1286.3
376.00	1327.8
377.00	1382.0
378.00	1436.9
379.00	1487.6
380.00	1543.6
381.00	1617.0
382.00	1681.5
383.00	1752.1
384.00	1826.3
385.00	1902.0
386.00	1975.2
387.00	2063.6
388.00	2145.9
389.00	2246.1
390.00	2337.6
391.00	2446.3
392.00	2551.3
393.00	2660.2
394.00	2781.0
395.00	2902.3
396.00	3029.4
397.00	3161.1
398.00	3298.9
399.00	3435.4
400.00	3577.3
401.00	3736.6
402.00	3894.6
403.00	4059.0
404.00	4229.3
405.00	4400.7
406.00	4575.1
407.00	4756.9
408.00	4955.7
409.00	5148.9
410.00	5351.3
411.00	5554.7
412.00	5779.2
413.00	5997.1
414.00	6214.1
415.00	6447.4
416.00	6679.6
417.00	6924.5
418.00	7171.5
419.00	7431.0
420.00	7696.7
421.00	7963.1
422.00	8224.9
423.00	8490.3
424.00	8762.3
425.00	9049.9
426.00	9348.4
427.00	9651.5
428.00	9933.6
429.00	10245
430.00	10553
431.00	10842
432.00	11149
433.00	11482
434.00	11792
435.00	12097
436.00	12420
437.00	12736
438.00	13054
439.00	13364
440.00	13681
441.00	14006
442.00	14294
443.00	14590
444.00	14885
445.00	15155
446.00	15444
447.00	15718
448.00	15976
449.00	16229
450.00	16469
451.00	16699
452.00	16908
453.00	17105
454.00	17280
455.00	17446
456.00	17588
457.00	17700
458.00	17796
459.00	17871
460.00	17906
461.00	17932
462.00	17911
463.00	17881
464.00	17806
465.00	17710
466.00	17581
467.00	17426
468.00	17235
469.00	17020
470.00	16776
471.00	16498
472.00	16197
473.00	15870
474.00	15533
475.00	15169
476.00	14800
477.00	14412
478.00	14002
479.00	13583
480.00	13152
481.00	12739
482.00	12316
483.00	11891
484.00	11486
485.00	10984
486.00	10662
487.00	10330
488.00	9922.2
489.00	9505.5
490.00	9142.6
491.00	8786.6
492.00	8440.6
493.00	8103.3
494.00	7786.8
495.00	7472.9
496.00	7171.4
497.00	6898.8
498.00	6622.4
499.00	6362.5
500.00	6117.4
501.00	5881.2
502.00	5651.3
503.00	5436.9
504.00	5230.1
505.00	5033.2
506.00	4841.0
507.00	4662.5
508.00	4491.2
509.00	4326.7
510.00	4167.5
511.00	4013.5
512.00	3866.3
513.00	3728.0
514.00	3589.0
515.00	3457.4
516.00	3331.8
517.00	3201.4
518.00	3084.2
519.00	2965.1
520.00	2857.4
521.00	2749.6
522.00	2641.6
523.00	2540.9
524.00	2450.9
525.00	2347.8
526.00	2253.2
527.00	2165.7
528.00	2080.7
529.00	2000.5
530.00	1924.0
531.00	1846.9
532.00	1775.7
533.00	1710.1
534.00	1640.9
535.00	1582.7
536.00	1523.8
537.00	1467.3
538.00	1416.4
539.00	1365.6
540.00	1323.0
541.00	1276.0
542.00	1238.4
543.00	1199.6
544.00	1163.4
545.00	1129.1
546.00	1096.7
547.00	1066.7
548.00	1039.1
549.00	1013.1
550.00	985.78
551.00	964.62
552.00	942.57
553.00	921.92
554.00	900.62
555.00	884.44
556.00	863.14
557.00	847.12
558.00	828.65
559.00	816.71
560.00	799.73
561.00	783.66
562.00	767.75
563.00	753.47
564.00	740.85
565.00	729.84
566.00	719.07
567.00	705.48
568.00	693.11
569.00	676.39
570.00	665.21
571.00	655.02
572.00	643.12
573.00	628.86
574.00	618.05
575.00	606.36
576.00	590.17
577.00	579.34
578.00	562.64
579.00	554.40
580.00	541.72
581.00	531.69
582.00	514.22
583.00	505.28
584.00	496.21
585.00	481.95
586.00	470.85
587.00	461.50
588.00	447.22
589.00	437.63
590.00	426.92
591.00	416.56
592.00	407.94
593.00	396.36
594.00	386.20
595.00	372.50
596.00	363.55
597.00	355.29
598.00	347.16
599.00	336.45
600.00	330.32
601.00	320.08
602.00	312.71
603.00	303.12
604.00	294.55
605.00	288.31
606.00	279.99
607.00	273.04
608.00	265.87
609.00	256.54
610.00	253.29
611.00	244.74
612.00	238.03
613.00	232.27
614.00	226.94
615.00	221.63
616.00	215.12
617.00	214.06
618.00	205.12
619.00	199.37
620.00	197.98
621.00	190.94
622.00	189.36
623.00	185.20
624.00	179.46
625.00	176.91
626.00	172.72
627.00	171.56
628.00	168.64
629.00	165.38
630.00	163.42
631.00	160.35
632.00	160.28
633.00	162.13
634.00	163.04
635.00	161.22
636.00	161.04
637.00	155.30
638.00	151.72
639.00	144.62
640.00	137.71
641.00	135.16
642.00	134.37
643.00	133.24
644.00	130.21
645.00	131.63
646.00	128.95
647.00	129.42
648.00	129.06
649.00	123.52
650.00	122.04
651.00	122.62
652.00	119.70
653.00	120.73
654.00	110.11
655.00	110.71
656.00	113.85
657.00	114.97
658.00	113.83
659.00	114.63
660.00	113.20
661.00	112.74
662.00	108.40
663.00	106.92
664.00	107.70
665.00	105.78
666.00	103.73
667.00	100.95
668.00	103.88
669.00	103.99
670.00	100.30
671.00	101.14
672.00	101.24
673.00	101.41
674.00	101.36
675.00	100.82
676.00	98.444
677.00	99.045
678.00	95.858
679.00	96.273
680.00	96.586
681.00	95.273
682.00	93.778
683.00	92.039
684.00	91.299
685.00	93.120
686.00	88.609
687.00	92.388
688.00	91.617
689.00	89.822
690.00	91.410
691.00	89.931
692.00	88.248
693.00	87.505
694.00	87.720
695.00	86.611
696.00	84.979
697.00	84.446
698.00	83.389
699.00	85.335
700.00	83.593
