Wavelength (nm)	I21 abs e
220.00	36283
220.25	36505
220.50	36408
220.75	36460
221.00	35980
221.25	36305
221.50	36116
221.75	35815
222.00	36031
222.25	35707
222.50	36289
222.75	36094
223.00	35700
223.25	35207
223.50	35437
223.75	35390
224.00	35036
224.25	35358
224.50	35229
224.75	34815
225.00	35005
225.25	35226
225.50	34739
225.75	34380
226.00	34471
226.25	34460
226.50	34262
226.75	34794
227.00	34097
227.25	34154
227.50	34103
227.75	34001
228.00	33582
228.25	34318
228.50	33561
228.75	33429
229.00	33569
229.25	33302
229.50	33219
229.75	32460
230.00	32563
230.25	32445
230.50	32102
230.75	31779
231.00	31572
231.25	31920
231.50	31450
231.75	31130
232.00	31061
232.25	30637
232.50	30595
232.75	30036
233.00	30068
233.25	29817
233.50	29635
233.75	29002
234.00	29026
234.25	29060
234.50	28573
234.75	28429
235.00	28004
235.25	28342
235.50	27936
235.75	27536
236.00	27472
236.25	27347
236.50	27046
236.75	27486
237.00	26657
237.25	26767
237.50	26575
237.75	26682
238.00	26296
238.25	26088
238.50	25802
238.75	26085
239.00	26225
239.25	25423
239.50	25648
239.75	25781
240.00	25673
240.25	25624
240.50	25210
240.75	25289
241.00	25026
241.25	25187
241.50	25359
241.75	25193
242.00	24879
242.25	25172
242.50	24864
242.75	25320
243.00	25179
243.25	25205
243.50	25177
243.75	25597
244.00	25192
244.25	25451
244.50	25115
244.75	25091
245.00	25231
245.25	24913
245.50	25373
245.75	25710
246.00	25529
246.25	25533
246.50	25332
246.75	25375
247.00	25958
247.25	25829
247.50	26258
247.75	25882
248.00	25668
248.25	26102
248.50	26306
248.75	26422
249.00	26661
249.25	26387
249.50	26762
249.75	26578
250.00	26880
250.25	26891
250.50	27195
250.75	27020
251.00	27242
251.25	27417
251.50	27540
251.75	27608
252.00	27493
252.25	27666
252.50	27823
252.75	28039
253.00	28377
253.25	28660
253.50	28906
253.75	28850
254.00	29128
254.25	28987
254.50	29307
254.75	29966
255.00	29935
255.25	30376
255.50	30736
255.75	30420
256.00	30651
256.25	31237
256.50	31604
256.75	31669
257.00	32150
257.25	31912
257.50	32162
257.75	32202
258.00	32957
258.25	33132
258.50	33567
258.75	33784
259.00	34157
259.25	34380
259.50	34408
259.75	34619
260.00	35250
260.25	35180
260.50	35144
260.75	35591
261.00	35703
261.25	36548
261.50	36851
261.75	37113
262.00	37635
262.25	37376
262.50	37614
262.75	38348
263.00	38674
263.25	38645
263.50	39113
263.75	39358
264.00	40067
264.25	40128
264.50	40761
264.75	40839
265.00	41593
265.25	41170
265.50	41887
265.75	42169
266.00	42467
266.25	42529
266.50	42543
266.75	43080
267.00	43082
267.25	43245
267.50	43268
267.75	43209
268.00	43840
268.25	43350
268.50	43553
268.75	43848
269.00	43603
269.25	43399
269.50	43635
269.75	42914
270.00	42616
270.25	42791
270.50	42056
270.75	41752
271.00	41131
271.25	40944
271.50	40585
271.75	39408
272.00	39008
272.25	38559
272.50	38462
272.75	37426
273.00	36937
273.25	36343
273.50	36254
273.75	35581
274.00	34822
274.25	33893
274.50	33230
274.75	32281
275.00	31904
275.25	31222
275.50	30902
275.75	29585
276.00	29730
276.25	28968
276.50	28730
276.75	27858
277.00	26845
277.25	26653
277.50	26025
277.75	25444
278.00	25063
278.25	24606
278.50	23807
278.75	23891
279.00	22546
279.25	22661
279.50	21669
279.75	21573
280.00	21090
280.25	21089
280.50	20486
280.75	20116
281.00	19833
281.25	19378
281.50	19315
281.75	19056
282.00	18801
282.25	17782
282.50	17991
282.75	17368
283.00	17505
283.25	17180
283.50	16980
283.75	16654
284.00	16546
284.25	16265
284.50	16204
284.75	15949
285.00	15784
285.25	15941
285.50	15806
285.75	15006
286.00	14906
286.25	15007
286.50	14673
286.75	14342
287.00	14197
287.25	14269
287.50	14258
287.75	13724
288.00	13626
288.25	13103
288.50	13396
288.75	13730
289.00	13275
289.25	13225
289.50	12954
289.75	13421
290.00	13108
290.25	12829
290.50	12683
290.75	12179
291.00	12715
291.25	12411
291.50	12720
291.75	12470
292.00	12140
292.25	12367
292.50	12268
292.75	11988
293.00	12337
293.25	12813
293.50	12520
293.75	11941
294.00	12013
294.25	11883
294.50	12396
294.75	12318
295.00	12291
295.25	12496
295.50	12633
295.75	12248
296.00	12248
296.25	12328
296.50	12508
296.75	12135
297.00	12384
297.25	12608
297.50	11985
297.75	12524
298.00	12621
298.25	12404
298.50	13118
298.75	12752
299.00	12961
299.25	12720
299.50	12760
299.75	13426
300.00	12864
300.25	13124
300.50	13056
300.75	13010
301.00	13097
301.25	13511
301.50	13312
301.75	13602
302.00	13672
302.25	13573
302.50	13538
302.75	13845
303.00	13671
303.25	13719
303.50	13574
303.75	14068
304.00	13969
304.25	13798
304.50	14121
304.75	13771
305.00	14020
305.25	14026
305.50	14145
305.75	13796
306.00	14151
306.25	14281
306.50	14092
306.75	14564
307.00	14523
307.25	14350
307.50	14489
307.75	14944
308.00	14466
308.25	14778
308.50	14767
308.75	14857
309.00	15017
309.25	14792
309.50	15399
309.75	14990
310.00	15532
310.25	15465
310.50	15863
310.75	15700
311.00	15972
311.25	15420
311.50	15766
311.75	15924
312.00	16455
312.25	16345
312.50	16206
312.75	16445
313.00	16389
313.25	16523
313.50	16524
313.75	16253
314.00	16874
314.25	16256
314.50	16991
314.75	16962
315.00	16428
315.25	17205
315.50	17262
315.75	17054
316.00	17078
316.25	17298
316.50	17356
316.75	17523
317.00	17081
317.25	17479
317.50	18033
317.75	17573
318.00	17265
318.25	17635
318.50	18047
318.75	17670
319.00	17815
319.25	18312
319.50	17471
319.75	18033
320.00	17973
320.25	17825
320.50	18025
320.75	17950
321.00	18145
321.25	18295
321.50	17967
321.75	18000
322.00	18033
322.25	18228
322.50	18070
322.75	17746
323.00	18041
323.25	18317
323.50	18086
323.75	18342
324.00	17852
324.25	17811
324.50	17962
324.75	17632
325.00	17665
325.25	17579
325.50	17639
325.75	17443
326.00	17534
326.25	17026
326.50	17253
326.75	16807
327.00	17345
327.25	16804
327.50	16490
327.75	16419
328.00	16374
328.25	16640
328.50	16162
328.75	16262
329.00	16093
329.25	16127
329.50	15828
329.75	15359
330.00	15684
330.25	15513
330.50	15534
330.75	15291
331.00	14705
331.25	14976
331.50	15297
331.75	14855
332.00	13833
332.25	14121
332.50	13875
332.75	13842
333.00	13835
333.25	14119
333.50	13771
333.75	13584
334.00	13499
334.25	13430
334.50	13212
334.75	13024
335.00	12218
335.25	12515
335.50	12098
335.75	12275
336.00	12128
336.25	11769
336.50	11876
336.75	11500
337.00	11789
337.25	11171
337.50	11019
337.75	11085
338.00	10821
338.25	10698
338.50	11034
338.75	11221
339.00	10488
339.25	9850.6
339.50	10853
339.75	9798.6
340.00	9777.8
340.25	9808.5
340.50	10031
340.75	10622
341.00	10151
341.25	9451.8
341.50	9884.1
341.75	9813.3
342.00	9562.5
342.25	9599.9
342.50	9238.0
342.75	9520.3
343.00	8713.8
343.25	9404.1
343.50	9097.7
343.75	8657.1
344.00	9016.8
344.25	8306.9
344.50	9039.4
344.75	8135.0
345.00	8562.4
345.25	8389.0
345.50	8310.4
345.75	8767.4
346.00	8217.3
346.25	8282.1
346.50	7467.3
346.75	8323.2
347.00	8059.9
347.25	8488.1
347.50	7894.8
347.75	8019.8
348.00	7925.5
348.25	8195.8
348.50	7824.0
348.75	7726.2
349.00	7638.6
349.25	7743.5
349.50	7684.1
349.75	7912.9
350.00	7628.5
350.25	7713.7
350.50	7578.4
350.75	7608.8
351.00	7492.5
351.25	7736.3
351.50	7496.1
351.75	7507.6
352.00	7576.3
352.25	7455.7
352.50	7326.2
352.75	7430.0
353.00	7092.1
353.25	7402.3
353.50	7312.1
353.75	7124.7
354.00	7075.2
354.25	7266.1
354.50	7179.8
354.75	6911.8
355.00	7095.0
355.25	7025.5
355.50	7042.8
355.75	6972.3
356.00	7072.7
356.25	6930.0
356.50	6543.1
356.75	6791.7
357.00	6842.6
357.25	6623.9
357.50	6891.9
357.75	6734.9
358.00	6531.5
358.25	6645.6
358.50	6447.4
358.75	6616.7
359.00	6610.3
359.25	6588.8
359.50	6543.5
359.75	6221.5
360.00	6291.1
360.25	6410.4
360.50	6406.6
360.75	6424.2
361.00	6319.7
361.25	6504.0
361.50	6245.3
361.75	6413.4
362.00	6333.0
362.25	6394.0
362.50	6081.0
362.75	5876.2
363.00	5934.2
363.25	5704.2
363.50	5757.2
363.75	5780.9
364.00	6143.2
364.25	5859.2
364.50	5525.1
364.75	5694.8
365.00	5644.8
365.25	5739.9
365.50	5788.0
365.75	5568.5
366.00	5518.9
366.25	5580.9
366.50	5378.8
366.75	5486.5
367.00	5386.4
367.25	5334.1
367.50	5511.6
367.75	5237.2
368.00	5267.5
368.25	5306.4
368.50	5212.3
368.75	5075.8
369.00	5063.8
369.25	4818.8
369.50	5025.0
369.75	4955.7
370.00	5085.1
370.25	5001.2
370.50	4953.0
370.75	4875.9
371.00	5180.0
371.25	4740.4
371.50	4969.5
371.75	4958.4
372.00	4839.2
372.25	4718.7
372.50	4771.4
372.75	4836.8
373.00	4380.2
373.25	4850.3
373.50	4685.7
373.75	4662.3
374.00	4624.3
374.25	4457.4
374.50	4544.0
374.75	4349.3
375.00	4465.8
375.25	4278.0
375.50	4299.0
375.75	4480.2
376.00	4194.9
376.25	4275.1
376.50	4175.2
376.75	4110.0
377.00	4264.3
377.25	4330.4
377.50	4278.9
377.75	4347.4
378.00	4204.3
378.25	4211.0
378.50	4227.7
378.75	4052.1
379.00	4106.1
379.25	4173.5
379.50	4118.3
379.75	4376.8
380.00	4200.8
380.25	3965.2
380.50	4151.9
380.75	4169.7
381.00	3979.6
381.25	4144.8
381.50	4112.2
381.75	4177.1
382.00	3893.7
382.25	4080.5
382.50	3863.1
382.75	4176.4
383.00	3837.1
383.25	3831.1
383.50	3998.6
383.75	3948.2
384.00	3960.4
384.25	3836.3
384.50	3494.9
384.75	3871.3
385.00	3942.4
385.25	3799.3
385.50	3776.8
385.75	3994.6
386.00	3896.5
386.25	3723.2
386.50	3938.7
386.75	3785.1
387.00	3878.0
387.25	3750.0
387.50	3701.8
387.75	3780.4
388.00	3666.0
388.25	3709.8
388.50	3829.6
388.75	3641.9
389.00	3914.2
389.25	3649.7
389.50	3855.8
389.75	3564.2
390.00	3623.0
390.25	3472.0
390.50	3715.4
390.75	3715.5
391.00	3573.5
391.25	3671.9
391.50	3646.5
391.75	3501.7
392.00	3620.2
392.25	3539.9
392.50	3561.6
392.75	3777.8
393.00	3492.2
393.25	3653.8
393.50	3544.1
393.75	3623.0
394.00	3596.8
394.25	3517.3
394.50	3716.5
394.75	3656.8
395.00	3509.8
395.25	3606.8
395.50	3456.4
395.75	3575.0
396.00	3503.9
396.25	3573.7
396.50	3730.5
396.75	3524.9
397.00	3298.5
397.25	3664.1
397.50	3416.2
397.75	3451.5
398.00	3437.9
398.25	3590.2
398.50	3429.4
398.75	3532.4
399.00	3524.5
399.25	3570.0
399.50	3615.0
399.75	3376.7
400.00	3676.6
400.25	3376.0
400.50	3662.2
400.75	3668.5
401.00	3653.6
401.25	3480.5
401.50	3685.0
401.75	3558.7
402.00	3492.1
402.25	3500.6
402.50	3487.9
402.75	3668.0
403.00	3606.5
403.25	3568.8
403.50	3418.9
403.75	3475.8
404.00	3542.7
404.25	3656.1
404.50	3565.0
404.75	3664.6
405.00	3639.4
405.25	3398.3
405.50	3668.7
405.75	3675.8
406.00	3709.1
406.25	3548.7
406.50	3598.8
406.75	3753.2
407.00	3559.8
407.25	3459.9
407.50	3681.5
407.75	3670.9
408.00	3659.7
408.25	3578.8
408.50	3773.3
408.75	3582.6
409.00	3668.1
409.25	3607.4
409.50	3644.2
409.75	3771.5
410.00	3759.9
410.25	3554.1
410.50	3557.0
410.75	3469.5
411.00	3521.9
411.25	3549.0
411.50	3657.7
411.75	3604.0
412.00	3441.4
412.25	3592.7
412.50	3645.5
412.75	3621.7
413.00	3462.0
413.25	3513.1
413.50	3413.4
413.75	3653.5
414.00	3646.0
414.25	3586.3
414.50	3405.6
414.75	3593.8
415.00	3525.5
415.25	3398.7
415.50	3435.6
415.75	3438.6
416.00	3639.8
416.25	3417.7
416.50	3487.6
416.75	3411.8
417.00	3493.8
417.25	3503.4
417.50	3259.3
417.75	3454.2
418.00	3520.9
418.25	3555.4
418.50	3528.0
418.75	3311.3
419.00	3465.5
419.25	3416.4
419.50	3367.9
419.75	3205.5
420.00	3375.9
420.25	3483.5
420.50	3391.4
420.75	3334.9
421.00	3387.4
421.25	3399.0
421.50	3297.1
421.75	3319.5
422.00	3319.8
422.25	3328.6
422.50	3383.8
422.75	3379.8
423.00	3267.1
423.25	3200.8
423.50	3400.4
423.75	3197.7
424.00	3176.4
424.25	3120.7
424.50	3342.0
424.75	3351.7
425.00	3147.8
425.25	3110.7
425.50	3163.8
425.75	3142.2
426.00	3048.3
426.25	3148.0
426.50	3021.3
426.75	3100.2
427.00	3159.8
427.25	3149.1
427.50	3146.1
427.75	3246.9
428.00	3252.6
428.25	3231.5
428.50	2949.8
428.75	3036.9
429.00	3044.1
429.25	3120.0
429.50	3078.8
429.75	3032.9
430.00	3114.4
430.25	3154.3
430.50	3027.7
430.75	3022.2
431.00	2892.3
431.25	3111.2
431.50	2938.9
431.75	3057.9
432.00	2890.1
432.25	2923.2
432.50	2976.2
432.75	3069.0
433.00	2992.1
433.25	3073.2
433.50	2999.3
433.75	2995.4
434.00	2906.4
434.25	3036.8
434.50	2877.0
434.75	2883.5
435.00	2951.4
435.25	2984.6
435.50	2846.3
435.75	2921.4
436.00	3075.6
436.25	2887.6
436.50	2951.5
436.75	2969.3
437.00	2911.2
437.25	3035.4
437.50	2875.6
437.75	2845.2
438.00	2759.5
438.25	2875.3
438.50	2985.0
438.75	2893.8
439.00	2822.4
439.25	2830.4
439.50	2826.6
439.75	2943.2
440.00	2849.8
440.25	2900.6
440.50	2831.2
440.75	2873.1
441.00	2848.8
441.25	2807.5
441.50	2923.0
441.75	2916.1
442.00	2915.6
442.25	2834.0
442.50	2932.9
442.75	2842.9
443.00	2854.5
443.25	2887.1
443.50	2766.7
443.75	2837.6
444.00	2813.7
444.25	2871.9
444.50	2817.0
444.75	2889.9
445.00	2696.9
445.25	2797.3
445.50	2854.7
445.75	2749.8
446.00	2870.4
446.25	2840.0
446.50	2729.8
446.75	2776.6
447.00	2792.9
447.25	2784.9
447.50	2805.6
447.75	2761.0
448.00	2800.1
448.25	2940.6
448.50	2663.8
448.75	2767.0
449.00	2644.3
449.25	2810.4
449.50	2776.6
449.75	2842.5
450.00	2923.3
450.25	2791.8
450.50	2726.4
450.75	2837.8
451.00	2885.5
451.25	2758.4
451.50	2761.4
451.75	2678.5
452.00	2803.9
452.25	2805.8
452.50	2910.9
452.75	2803.4
453.00	2922.6
453.25	2747.3
453.50	2776.2
453.75	2767.0
454.00	2825.5
454.25	2793.1
454.50	2782.2
454.75	2736.3
455.00	2728.0
455.25	2823.1
455.50	2819.5
455.75	2728.5
456.00	2769.0
456.25	2765.2
456.50	2779.3
456.75	2847.1
457.00	2698.1
457.25	2701.9
457.50	2684.8
457.75	2749.7
458.00	2730.7
458.25	2842.6
458.50	2710.3
458.75	2763.6
459.00	2882.7
459.25	2800.1
459.50	2767.9
459.75	2844.9
460.00	2771.0
460.25	2764.3
460.50	2811.3
460.75	2842.6
461.00	2911.6
461.25	2929.0
461.50	2864.0
461.75	2969.3
462.00	2798.6
462.25	2866.2
462.50	2836.5
462.75	2813.3
463.00	2829.5
463.25	2844.3
463.50	2917.4
463.75	2996.6
464.00	3021.6
464.25	2952.6
464.50	2985.1
464.75	3009.9
465.00	3021.8
465.25	2944.6
465.50	2939.6
465.75	3039.4
466.00	3108.3
466.25	3114.7
466.50	2893.8
466.75	3006.2
467.00	3084.2
467.25	3095.0
467.50	3095.1
467.75	3060.2
468.00	3081.3
468.25	3150.3
468.50	3143.5
468.75	3195.6
469.00	3190.8
469.25	3164.4
469.50	3243.7
469.75	3279.0
470.00	3322.3
470.25	3404.1
470.50	3237.1
470.75	3372.1
471.00	3431.1
471.25	3241.4
471.50	3381.2
471.75	3215.5
472.00	3427.0
472.25	3440.8
472.50	3417.1
472.75	3380.9
473.00	3490.9
473.25	3461.7
473.50	3506.6
473.75	3539.5
474.00	3416.7
474.25	3729.6
474.50	3512.2
474.75	3628.9
475.00	3675.1
475.25	3738.0
475.50	3607.6
475.75	3785.2
476.00	3716.8
476.25	3718.4
476.50	3681.7
476.75	3816.4
477.00	3801.8
477.25	3758.3
477.50	3895.5
477.75	3777.3
478.00	3890.4
478.25	3992.7
478.50	4077.5
478.75	3911.3
479.00	4001.7
479.25	4057.8
479.50	4028.7
479.75	3974.7
480.00	4025.5
480.25	4003.5
480.50	3981.2
480.75	4221.8
481.00	4133.3
481.25	4292.6
481.50	4239.8
481.75	4268.6
482.00	4296.3
482.25	4238.3
482.50	4179.3
482.75	4387.1
483.00	4418.5
483.25	4444.4
483.50	4355.6
483.75	4402.6
484.00	4495.2
484.25	4514.7
484.50	4579.8
484.75	4500.0
485.00	4667.8
485.25	4668.3
485.50	4656.1
485.75	4667.6
486.00	4669.3
486.25	4665.2
486.50	4706.5
486.75	4887.0
487.00	4794.2
487.25	4829.7
487.50	4904.4
487.75	4968.8
488.00	5076.8
488.25	4983.3
488.50	4980.8
488.75	5117.9
489.00	5064.6
489.25	5099.7
489.50	5209.9
489.75	5218.8
490.00	5137.6
490.25	5243.8
490.50	5314.7
490.75	5317.7
491.00	5289.7
491.25	5292.0
491.50	5491.1
491.75	5412.9
492.00	5399.9
492.25	5624.1
492.50	5565.7
492.75	5622.4
493.00	5649.5
493.25	5699.7
493.50	5623.7
493.75	5768.8
494.00	5840.9
494.25	5880.2
494.50	5951.8
494.75	5961.9
495.00	5949.2
495.25	6014.3
495.50	6162.1
495.75	6147.5
496.00	6231.6
496.25	6320.0
496.50	6311.3
496.75	6329.4
497.00	6399.1
497.25	6448.7
497.50	6427.7
497.75	6481.8
498.00	6573.9
498.25	6647.6
498.50	6654.7
498.75	6612.8
499.00	6830.2
499.25	6900.4
499.50	6880.4
499.75	6875.1
500.00	7040.2
500.25	6961.8
500.50	7043.1
500.75	7029.5
501.00	7201.4
501.25	7177.9
501.50	7229.6
501.75	7289.2
502.00	7330.6
502.25	7547.9
502.50	7485.1
502.75	7555.4
503.00	7617.4
503.25	7771.7
503.50	7695.4
503.75	7860.9
504.00	7800.9
504.25	7903.7
504.50	7930.8
504.75	8007.9
505.00	8002.2
505.25	8232.5
505.50	8140.6
505.75	8365.0
506.00	8363.5
506.25	8428.7
506.50	8502.2
506.75	8649.3
507.00	8552.1
507.25	8668.9
507.50	8765.0
507.75	8774.5
508.00	8832.7
508.25	8857.3
508.50	9065.4
508.75	9074.2
509.00	9077.3
509.25	9202.7
509.50	9297.3
509.75	9332.4
510.00	9407.3
510.25	9655.2
510.50	9545.5
510.75	9633.6
511.00	9681.5
511.25	9835.5
511.50	9841.5
511.75	9891.8
512.00	10194
512.25	10243
512.50	10280
512.75	10080
513.00	10278
513.25	10270
513.50	10448
513.75	10446
514.00	10730
514.25	10626
514.50	10778
514.75	10827
515.00	10828
515.25	10989
515.50	11109
515.75	10965
516.00	11162
516.25	11127
516.50	11205
516.75	11443
517.00	11337
517.25	11543
517.50	11597
517.75	11848
518.00	11711
518.25	12034
518.50	11937
518.75	11916
519.00	12234
519.25	12250
519.50	12303
519.75	12404
520.00	12412
520.25	12567
520.50	12561
520.75	12749
521.00	12769
521.25	12830
521.50	12881
521.75	13080
522.00	13162
522.25	13239
522.50	13135
522.75	13332
523.00	13520
523.25	13547
523.50	13645
523.75	13678
524.00	13792
524.25	14022
524.50	14033
524.75	14235
525.00	14252
525.25	14238
525.50	14488
525.75	14487
526.00	14774
526.25	14542
526.50	14797
526.75	14896
527.00	14988
527.25	15131
527.50	15273
527.75	15355
528.00	15410
528.25	15477
528.50	15660
528.75	15706
529.00	15844
529.25	15830
529.50	15936
529.75	16085
530.00	16027
530.25	16173
530.50	16331
530.75	16511
531.00	16628
531.25	16923
531.50	16708
531.75	16867
532.00	17038
532.25	17103
532.50	17369
532.75	17372
533.00	17445
533.25	17825
533.50	17809
533.75	18061
534.00	18143
534.25	18248
534.50	18417
534.75	18546
535.00	18513
535.25	18890
535.50	18928
535.75	19022
536.00	19091
536.25	19363
536.50	19483
536.75	19664
537.00	19737
537.25	19903
537.50	20090
537.75	20065
538.00	20306
538.25	20408
538.50	20532
538.75	20732
539.00	20925
539.25	20985
539.50	21282
539.75	21415
540.00	21465
540.25	21787
540.50	21891
540.75	21861
541.00	22292
541.25	22328
541.50	22579
541.75	22762
542.00	22888
542.25	23133
542.50	23180
542.75	23418
543.00	23504
543.25	23630
543.50	23990
543.75	24061
544.00	24512
544.25	24498
544.50	24744
544.75	24891
545.00	25052
545.25	25205
545.50	25457
545.75	25468
546.00	25765
546.25	26018
546.50	26246
546.75	26391
547.00	26718
547.25	26706
547.50	26844
547.75	27212
548.00	27239
548.25	27437
548.50	27669
548.75	27866
549.00	28135
549.25	28328
549.50	28672
549.75	28818
550.00	29035
550.25	29370
550.50	29466
550.75	29690
551.00	29823
551.25	29937
551.50	30159
551.75	30420
552.00	30501
552.25	30701
552.50	30860
552.75	31080
553.00	31330
553.25	31521
553.50	31795
553.75	31883
554.00	32040
554.25	32391
554.50	32395
554.75	32602
555.00	32896
555.25	33061
555.50	33191
555.75	33370
556.00	33577
556.25	33881
556.50	34057
556.75	34266
557.00	34311
557.25	34529
557.50	34695
557.75	34856
558.00	34947
558.25	35233
558.50	35437
558.75	35544
559.00	35699
559.25	35892
559.50	36146
559.75	36309
560.00	36518
560.25	36638
560.50	36770
560.75	37131
561.00	37214
561.25	37518
561.50	37825
561.75	37840
562.00	38128
562.25	38263
562.50	38568
562.75	38586
563.00	38867
563.25	38978
563.50	39339
563.75	39274
564.00	39680
564.25	39881
564.50	40121
564.75	40039
565.00	40468
565.25	40755
565.50	40727
565.75	41103
566.00	41055
566.25	41416
566.50	41462
566.75	41763
567.00	42102
567.25	42224
567.50	42200
567.75	42577
568.00	42586
568.25	42770
568.50	42957
568.75	43151
569.00	43282
569.25	43504
569.50	43810
569.75	44053
570.00	44105
570.25	44568
570.50	44619
570.75	44818
571.00	44868
571.25	44986
571.50	45519
571.75	45569
572.00	45654
572.25	45862
572.50	45966
572.75	46275
573.00	46636
573.25	46706
573.50	46942
573.75	47020
574.00	47132
574.25	47343
574.50	47753
574.75	47862
575.00	47995
575.25	48323
575.50	48376
575.75	48489
576.00	48656
576.25	48908
576.50	49214
576.75	49316
577.00	49606
577.25	49390
577.50	49808
577.75	49862
578.00	50236
578.25	50338
578.50	50486
578.75	50724
579.00	50764
579.25	51088
579.50	51304
579.75	51332
580.00	51722
580.25	52068
580.50	52018
580.75	52236
581.00	52598
581.25	52723
581.50	52598
581.75	53024
582.00	52961
582.25	53272
582.50	53743
582.75	53946
583.00	53971
583.25	54348
583.50	54456
583.75	54782
584.00	54839
584.25	54974
584.50	55394
584.75	55689
585.00	55852
585.25	56119
585.50	56390
585.75	56678
586.00	57139
586.25	57074
586.50	57439
586.75	57726
587.00	57807
587.25	58134
587.50	58685
587.75	58920
588.00	59151
588.25	59411
588.50	59640
588.75	60060
589.00	60527
589.25	60972
589.50	61303
589.75	61652
590.00	61898
590.25	62573
590.50	62568
