Wavelength (nm)	E22 abs e
220.00	13904
220.25	13874
220.50	13840
220.75	13854
221.00	13957
221.25	13915
221.50	13875
221.75	13853
222.00	13832
222.25	13929
222.50	13975
222.75	13957
223.00	13920
223.25	13999
223.50	13926
223.75	13936
224.00	13928
224.25	13979
224.50	14030
224.75	13960
225.00	14019
225.25	14009
225.50	13998
225.75	13983
226.00	13937
226.25	13934
226.50	13975
226.75	13990
227.00	14014
227.25	13944
227.50	13949
227.75	13908
228.00	13945
228.25	13820
228.50	13853
228.75	13827
229.00	13802
229.25	13782
229.50	13786
229.75	13754
230.00	13730
230.25	13624
230.50	13654
230.75	13519
231.00	13538
231.25	13506
231.50	13380
231.75	13426
232.00	13335
232.25	13270
232.50	13177
232.75	13102
233.00	13001
233.25	12969
233.50	12912
233.75	12821
234.00	12698
234.25	12608
234.50	12481
234.75	12328
235.00	12214
235.25	12034
235.50	11859
235.75	11671
236.00	11513
236.25	11337
236.50	11184
236.75	10962
237.00	10752
237.25	10548
237.50	10322
237.75	10087
238.00	9865.2
238.25	9621.8
238.50	9373.4
238.75	9123.0
239.00	8820.8
239.25	8563.0
239.50	8295.2
239.75	8041.7
240.00	7755.8
240.25	7481.8
240.50	7205.3
240.75	6942.1
241.00	6680.6
241.25	6423.2
241.50	6172.1
241.75	5926.6
242.00	5724.6
242.25	5476.9
242.50	5235.8
242.75	5076.3
243.00	4848.3
243.25	4680.7
243.50	4480.3
243.75	4305.2
244.00	4152.3
244.25	3981.5
244.50	3822.3
244.75	3684.1
245.00	3556.4
245.25	3400.8
245.50	3333.8
245.75	3226.5
246.00	3102.1
246.25	3016.4
246.50	2937.7
246.75	2857.3
247.00	2797.7
247.25	2737.5
247.50	2657.9
247.75	2569.5
248.00	2548.9
248.25	2490.4
248.50	2459.8
248.75	2404.2
249.00	2371.5
249.25	2361.7
249.50	2277.7
249.75	2314.4
250.00	2278.5
250.25	2246.9
250.50	2190.5
250.75	2165.7
251.00	2183.9
251.25	2158.7
251.50	2146.4
251.75	2168.3
252.00	2159.1
252.25	2146.1
252.50	2129.7
252.75	2113.6
253.00	2113.9
253.25	2095.8
253.50	2117.5
253.75	2116.0
254.00	2129.8
254.25	2164.7
254.50	2130.8
254.75	2137.3
255.00	2149.9
255.25	2129.8
255.50	2102.9
255.75	2127.0
256.00	2124.8
256.25	2162.0
256.50	2173.8
256.75	2178.4
257.00	2175.5
257.25	2182.1
257.50	2167.4
257.75	2154.6
258.00	2155.9
258.25	2203.1
258.50	2218.3
258.75	2218.9
259.00	2202.4
259.25	2213.3
259.50	2226.2
259.75	2209.2
260.00	2187.4
260.25	2229.0
260.50	2205.9
260.75	2213.7
261.00	2235.4
261.25	2239.9
261.50	2247.0
261.75	2232.5
262.00	2221.8
262.25	2217.1
262.50	2206.1
262.75	2229.7
263.00	2196.8
263.25	2208.9
263.50	2227.8
263.75	2223.2
264.00	2183.9
264.25	2190.5
264.50	2177.0
264.75	2183.0
265.00	2163.4
265.25	2166.1
265.50	2178.8
265.75	2167.8
266.00	2159.7
266.25	2148.0
266.50	2120.0
266.75	2116.9
267.00	2111.5
267.25	2107.7
267.50	2089.8
267.75	2090.9
268.00	2071.2
268.25	2031.5
268.50	2052.0
268.75	2025.1
269.00	2022.9
269.25	1991.4
269.50	1992.9
269.75	1965.6
270.00	1974.8
270.25	1927.8
270.50	1933.5
270.75	1917.6
271.00	1912.1
271.25	1887.1
271.50	1868.6
271.75	1877.0
272.00	1847.9
272.25	1827.4
272.50	1856.4
272.75	1815.5
273.00	1786.5
273.25	1818.0
273.50	1794.1
273.75	1780.5
274.00	1780.8
274.25	1798.6
274.50	1779.5
274.75	1764.7
275.00	1750.4
275.25	1725.3
275.50	1733.6
275.75	1728.3
276.00	1710.5
276.25	1700.7
276.50	1719.0
276.75	1687.3
277.00	1710.1
277.25	1706.4
277.50	1680.7
277.75	1635.6
278.00	1663.5
278.25	1631.7
278.50	1613.5
278.75	1633.8
279.00	1630.0
279.25	1649.9
279.50	1639.2
279.75	1612.6
280.00	1591.4
280.25	1591.1
280.50	1593.6
280.75	1600.3
281.00	1576.0
281.25	1576.5
281.50	1601.0
281.75	1588.0
282.00	1603.1
282.25	1565.0
282.50	1554.7
282.75	1547.9
283.00	1539.5
283.25	1547.7
283.50	1565.3
283.75	1578.6
284.00	1574.7
284.25	1555.9
284.50	1557.9
284.75	1528.3
285.00	1555.4
285.25	1543.9
285.50	1558.9
285.75	1530.6
286.00	1548.6
286.25	1565.0
286.50	1559.4
286.75	1583.9
287.00	1549.1
287.25	1562.5
287.50	1564.3
287.75	1590.1
288.00	1605.6
288.25	1578.2
288.50	1597.9
288.75	1610.8
289.00	1601.4
289.25	1595.1
289.50	1636.3
289.75	1634.2
290.00	1645.0
290.25	1652.7
290.50	1688.0
290.75	1696.9
291.00	1686.7
291.25	1719.2
291.50	1719.2
291.75	1733.7
292.00	1732.3
292.25	1759.9
292.50	1760.3
292.75	1779.7
293.00	1814.7
293.25	1822.9
293.50	1822.8
293.75	1873.3
294.00	1885.8
294.25	1909.7
294.50	1894.3
294.75	1901.1
295.00	1926.7
295.25	1955.5
295.50	1952.9
295.75	1990.9
296.00	2015.4
296.25	2078.9
296.50	2094.5
296.75	2070.0
297.00	2110.8
297.25	2176.2
297.50	2176.7
297.75	2230.2
298.00	2253.7
298.25	2253.7
298.50	2321.8
298.75	2319.1
299.00	2358.6
299.25	2413.9
299.50	2418.4
299.75	2474.8
300.00	2506.0
300.25	2568.2
300.50	2605.3
300.75	2620.8
301.00	2696.3
301.25	2713.5
301.50	2756.2
301.75	2800.8
302.00	2799.2
302.25	2865.9
302.50	2968.9
302.75	2978.8
303.00	3017.6
303.25	3067.3
303.50	3079.2
303.75	3175.8
304.00	3212.7
304.25	3242.2
304.50	3308.6
304.75	3352.7
305.00	3414.3
305.25	3489.0
305.50	3494.5
305.75	3553.7
306.00	3616.7
306.25	3651.6
306.50	3737.4
306.75	3732.1
307.00	3822.4
307.25	3894.0
307.50	3963.5
307.75	4002.7
308.00	4085.1
308.25	4125.2
308.50	4149.5
308.75	4201.8
309.00	4305.0
309.25	4345.1
309.50	4428.2
309.75	4478.4
310.00	4387.1
310.25	4412.3
310.50	4367.5
310.75	4448.1
311.00	4612.6
311.25	4664.8
311.50	4823.1
311.75	4764.5
312.00	4831.9
312.25	4876.5
312.50	4923.0
312.75	4953.3
313.00	5049.2
313.25	5140.3
313.50	5306.7
313.75	5298.4
314.00	5262.8
314.25	5308.5
314.50	5523.7
314.75	5540.7
315.00	5639.5
315.25	5689.3
315.50	5675.0
315.75	5854.4
316.00	5884.9
316.25	5910.9
316.50	5919.5
316.75	6029.5
317.00	6066.5
317.25	6129.6
317.50	6185.8
317.75	6307.7
318.00	6123.9
318.25	6313.6
318.50	6420.9
318.75	6436.3
319.00	6481.8
319.25	6524.0
319.50	6632.4
319.75	6665.3
320.00	6751.1
320.25	6787.0
320.50	6757.4
320.75	6794.5
321.00	6778.2
321.25	6961.6
321.50	6858.9
321.75	6927.7
322.00	7012.0
322.25	7109.4
322.50	7021.8
322.75	7113.1
323.00	7132.7
323.25	7154.5
323.50	7134.2
323.75	7364.4
324.00	7137.6
324.25	7334.6
324.50	7380.6
324.75	7316.4
325.00	7349.4
325.25	7407.9
325.50	7313.7
325.75	7466.2
326.00	7488.4
326.25	7534.1
326.50	7458.5
326.75	7472.2
327.00	7536.9
327.25	7490.5
327.50	7498.4
327.75	7586.7
328.00	7653.5
328.25	7641.5
328.50	7674.1
328.75	7503.5
329.00	7529.0
329.25	7644.1
329.50	7539.5
329.75	7499.9
330.00	7574.5
330.25	7503.5
330.50	7438.4
330.75	7531.1
331.00	7462.2
331.25	7546.7
331.50	7411.8
331.75	7399.2
332.00	7425.0
332.25	7480.4
332.50	7382.7
332.75	7373.9
333.00	7261.2
333.25	7255.3
333.50	7272.8
333.75	7184.9
334.00	7142.7
334.25	7131.8
334.50	7033.3
334.75	7094.2
335.00	7159.4
335.25	6937.9
335.50	6889.5
335.75	6887.5
336.00	6685.6
336.25	6814.0
336.50	6697.8
336.75	6642.2
337.00	6624.4
337.25	6608.3
337.50	6542.0
337.75	6444.8
338.00	6381.4
338.25	6315.0
338.50	6188.3
338.75	6234.8
339.00	6112.8
339.25	6077.7
339.50	6002.6
339.75	5933.6
340.00	5839.8
340.25	5765.3
340.50	5627.6
340.75	5583.3
341.00	5591.0
341.25	5460.1
341.50	5372.9
341.75	5369.5
342.00	5288.0
342.25	5160.8
342.50	5074.8
342.75	5008.7
343.00	5008.4
343.25	4955.1
343.50	4903.3
343.75	4765.2
344.00	4657.7
344.25	4623.1
344.50	4581.5
344.75	4429.2
345.00	4354.2
345.25	4380.3
345.50	4261.8
345.75	4228.6
346.00	4088.7
346.25	4056.8
346.50	4029.8
346.75	3930.1
347.00	3913.4
347.25	3788.4
347.50	3803.5
347.75	3620.2
348.00	3599.5
348.25	3541.3
348.50	3438.9
348.75	3422.8
349.00	3386.1
349.25	3271.1
349.50	3182.1
349.75	3130.8
350.00	3069.7
350.25	3018.3
350.50	2959.4
350.75	2901.7
351.00	2859.0
351.25	2750.1
351.50	2754.0
351.75	2630.4
352.00	2622.1
352.25	2636.5
352.50	2545.0
352.75	2469.5
353.00	2431.1
353.25	2376.1
353.50	2319.8
353.75	2287.3
354.00	2238.8
354.25	2145.1
354.50	2085.7
354.75	2054.9
355.00	2058.0
355.25	1965.0
355.50	1899.7
355.75	1926.4
356.00	1835.5
356.25	1835.8
356.50	1744.4
356.75	1736.7
357.00	1727.2
357.25	1710.6
357.50	1661.8
357.75	1571.2
358.00	1566.3
358.25	1555.9
358.50	1502.4
358.75	1452.6
359.00	1448.1
359.25	1382.7
359.50	1380.5
359.75	1349.3
360.00	1325.6
360.25	1304.8
360.50	1323.5
360.75	1277.9
361.00	1168.9
361.25	1170.3
361.50	1238.1
361.75	1177.6
362.00	1141.1
362.25	1120.2
362.50	1062.0
362.75	1084.0
363.00	1110.1
363.25	1059.0
363.50	1021.5
363.75	1052.0
364.00	988.89
364.25	1009.1
364.50	982.73
364.75	1009.3
365.00	973.77
365.25	958.23
365.50	949.97
365.75	913.56
366.00	941.29
366.25	907.40
366.50	909.92
366.75	894.10
367.00	880.66
367.25	887.80
367.50	859.94
367.75	863.02
368.00	856.44
368.25	823.12
368.50	852.10
368.75	845.66
369.00	823.26
369.25	807.44
369.50	793.72
369.75	821.16
370.00	787.28
370.25	847.20
370.50	777.33
370.75	849.44
371.00	858.54
371.25	857.70
371.50	806.04
371.75	808.70
372.00	804.50
372.25	829.14
372.50	789.24
372.75	779.29
373.00	819.76
373.25	824.66
373.50	831.66
373.75	823.26
374.00	823.96
374.25	829.00
374.50	827.18
374.75	885.42
375.00	825.08
375.25	858.82
375.50	884.72
375.75	874.36
376.00	906.70
376.25	910.90
376.50	913.28
376.75	939.33
377.00	913.70
377.25	918.32
377.50	939.75
377.75	1009.9
378.00	965.93
378.25	993.09
378.50	917.90
378.75	974.33
379.00	994.63
379.25	1029.1
379.50	1022.1
379.75	1061.6
380.00	1115.7
380.25	1057.2
380.50	1129.9
380.75	1083.1
381.00	1141.1
381.25	1169.9
381.50	1152.7
381.75	1193.9
382.00	1156.5
382.25	1192.6
382.50	1224.0
382.75	1232.9
383.00	1238.8
383.25	1270.3
383.50	1297.9
383.75	1336.3
384.00	1311.2
384.25	1344.0
384.50	1354.2
384.75	1405.7
385.00	1412.4
385.25	1402.6
385.50	1460.3
385.75	1453.2
386.00	1503.6
386.25	1504.3
386.50	1551.0
386.75	1550.2
387.00	1582.7
387.25	1605.8
387.50	1625.9
387.75	1632.4
388.00	1745.5
388.25	1689.9
388.50	1696.1
388.75	1779.8
389.00	1782.0
389.25	1792.0
389.50	1832.9
389.75	1882.2
390.00	1894.8
390.25	1944.7
390.50	1866.8
390.75	1970.2
391.00	2031.8
391.25	2018.5
391.50	2073.3
391.75	2117.1
392.00	2085.7
392.25	2140.2
392.50	2151.4
392.75	2172.0
393.00	2233.7
393.25	2272.5
393.50	2289.4
393.75	2331.3
394.00	2370.6
394.25	2421.1
394.50	2463.6
394.75	2455.4
395.00	2502.7
395.25	2557.7
395.50	2608.5
395.75	2631.9
396.00	2713.4
396.25	2743.2
396.50	2754.0
396.75	2784.0
397.00	2827.9
397.25	2889.4
397.50	2954.3
397.75	2931.1
398.00	2980.0
398.25	3058.9
398.50	3064.4
398.75	3039.1
399.00	3145.5
399.25	3185.8
399.50	3255.8
399.75	3304.1
400.00	3300.6
400.25	3375.1
400.50	3400.4
400.75	3420.3
401.00	3502.6
401.25	3530.8
401.50	3591.1
401.75	3621.5
402.00	3639.4
402.25	3683.9
402.50	3771.3
402.75	3820.6
403.00	3862.2
403.25	3891.6
403.50	3968.6
403.75	4037.9
404.00	4049.2
404.25	4128.8
404.50	4143.6
404.75	4200.2
405.00	4218.5
405.25	4305.4
405.50	4376.1
405.75	4398.4
406.00	4523.6
406.25	4552.3
406.50	4533.0
406.75	4661.6
407.00	4694.0
407.25	4758.7
407.50	4841.1
407.75	4889.7
408.00	4926.2
408.25	4971.2
408.50	5026.8
408.75	5103.6
409.00	5158.1
409.25	5177.7
409.50	5265.8
409.75	5390.7
410.00	5418.8
410.25	5480.8
410.50	5556.9
410.75	5590.0
411.00	5642.1
411.25	5719.8
411.50	5861.2
411.75	5872.4
412.00	5937.1
412.25	6038.3
412.50	6107.2
412.75	6172.6
413.00	6217.4
413.25	6292.5
413.50	6336.1
413.75	6464.4
414.00	6539.3
414.25	6640.2
414.50	6596.0
414.75	6642.2
415.00	6704.9
415.25	6801.1
415.50	6845.5
415.75	6941.5
416.00	7064.3
416.25	7106.1
416.50	7204.1
416.75	7261.8
417.00	7372.8
417.25	7431.6
417.50	7476.4
417.75	7611.4
418.00	7691.7
418.25	7760.5
418.50	7843.4
418.75	7903.0
419.00	8008.3
419.25	8047.2
419.50	8195.8
419.75	8252.3
420.00	8360.7
420.25	8475.6
420.50	8537.2
420.75	8676.4
421.00	8700.9
421.25	8802.8
421.50	8923.9
421.75	8960.1
422.00	9028.0
422.25	9173.7
422.50	9276.8
422.75	9358.4
423.00	9437.2
423.25	9526.3
423.50	9633.7
423.75	9665.6
424.00	9789.2
424.25	9942.1
424.50	9973.9
424.75	10038
425.00	10159
425.25	10178
425.50	10298
425.75	10426
426.00	10545
426.25	10594
426.50	10685
426.75	10786
427.00	10846
427.25	10969
427.50	11026
427.75	11109
428.00	11207
428.25	11327
428.50	11397
428.75	11539
429.00	11587
429.25	11676
429.50	11806
429.75	11883
430.00	11939
430.25	12043
430.50	12156
430.75	12253
431.00	12333
431.25	12453
431.50	12509
431.75	12639
432.00	12689
432.25	12796
432.50	12900
432.75	12978
433.00	13111
433.25	13153
433.50	13233
433.75	13344
434.00	13435
434.25	13473
434.50	13651
434.75	13727
435.00	13808
435.25	13959
435.50	14080
435.75	14216
436.00	14293
436.25	14385
436.50	14462
436.75	14562
437.00	14690
437.25	14746
437.50	14845
437.75	14978
438.00	14989
438.25	15051
438.50	15209
438.75	15261
439.00	15371
439.25	15465
439.50	15504
439.75	15613
440.00	15777
440.25	15756
440.50	15893
440.75	15942
441.00	16020
441.25	16109
441.50	16152
441.75	16261
442.00	16313
442.25	16432
442.50	16532
442.75	16600
443.00	16680
443.25	16799
443.50	16785
443.75	16905
444.00	16976
444.25	17072
444.50	17146
444.75	17220
445.00	17248
445.25	17360
445.50	17491
445.75	17556
446.00	17581
446.25	17617
446.50	17732
446.75	17788
447.00	17826
447.25	17889
447.50	17997
447.75	18039
448.00	18189
448.25	18141
448.50	18212
448.75	18301
449.00	18343
449.25	18472
449.50	18530
449.75	18522
450.00	18549
450.25	18697
450.50	18684
450.75	18761
451.00	18828
451.25	18914
451.50	18916
451.75	18923
452.00	18991
452.25	18987
452.50	19061
452.75	19102
453.00	19125
453.25	19203
453.50	19245
453.75	19264
454.00	19282
454.25	19310
454.50	19379
454.75	19379
455.00	19347
455.25	19371
455.50	19404
455.75	19451
456.00	19527
456.25	19449
456.50	19538
456.75	19591
457.00	19583
457.25	19543
457.50	19623
457.75	19596
458.00	19626
458.25	19614
458.50	19625
458.75	19622
459.00	19680
459.25	19640
459.50	19594
459.75	19589
460.00	19654
460.25	19667
460.50	19700
460.75	19581
461.00	19650
461.25	19650
461.50	19651
461.75	19630
462.00	19564
462.25	19609
462.50	19530
462.75	19569
463.00	19516
463.25	19506
463.50	19508
463.75	19462
464.00	19409
464.25	19435
464.50	19413
464.75	19394
465.00	19305
465.25	19293
465.50	19346
465.75	19241
466.00	19223
466.25	19153
466.50	19086
466.75	19063
467.00	18974
467.25	18964
467.50	18964
467.75	18876
468.00	18850
468.25	18767
468.50	18750
468.75	18724
469.00	18640
469.25	18554
469.50	18528
469.75	18457
470.00	18421
470.25	18303
470.50	18252
470.75	18225
471.00	18161
471.25	18043
471.50	17946
471.75	17905
472.00	17817
472.25	17749
472.50	17681
472.75	17559
473.00	17522
473.25	17435
473.50	17320
473.75	17243
474.00	17207
474.25	17131
474.50	17012
474.75	16913
475.00	16726
475.25	16650
475.50	16499
475.75	16407
476.00	16269
476.25	16152
476.50	16082
476.75	15949
477.00	15840
477.25	15725
477.50	15648
477.75	15573
478.00	15389
478.25	15268
478.50	15194
478.75	15072
479.00	14945
479.25	14812
479.50	14718
479.75	14610
480.00	14460
480.25	14314
480.50	14201
480.75	14046
481.00	13966
481.25	13800
481.50	13684
481.75	13600
482.00	13453
482.25	13305
482.50	13185
482.75	13048
483.00	12881
483.25	12774
483.50	12612
483.75	12468
484.00	12323
484.25	12231
484.50	12046
484.75	11930
485.00	11764
485.25	11605
485.50	11444
485.75	11381
486.00	11175
486.25	11032
486.50	10890
486.75	10691
487.00	10562
487.25	10460
487.50	10300
487.75	10105
488.00	9968.6
488.25	9860.2
488.50	9702.1
488.75	9531.6
489.00	9354.6
489.25	9226.1
489.50	9110.6
489.75	8940.5
490.00	8757.2
490.25	8651.6
490.50	8502.7
490.75	8339.8
491.00	8183.7
491.25	8044.3
491.50	7908.3
491.75	7775.7
492.00	7615.6
492.25	7462.0
492.50	7319.2
492.75	7184.3
493.00	7026.1
493.25	6899.4
493.50	6793.3
493.75	6670.6
494.00	6571.8
494.25	6416.5
494.50	6388.6
494.75	6327.7
495.00	6207.3
495.25	6042.5
495.50	5897.2
495.75	5733.8
496.00	5677.0
496.25	5558.0
496.50	5411.7
496.75	5277.5
497.00	5193.2
497.25	5084.5
497.50	4960.0
497.75	4814.1
498.00	4734.7
498.25	4620.9
498.50	4504.0
498.75	4393.2
499.00	4326.4
499.25	4231.0
499.50	4111.9
499.75	4014.1
500.00	3924.3
500.25	3821.4
500.50	3714.6
500.75	3640.7
501.00	3561.3
501.25	3498.3
501.50	3420.0
501.75	3304.4
502.00	3236.6
502.25	3166.9
502.50	3052.4
502.75	3033.9
503.00	2941.7
503.25	2863.3
503.50	2813.4
503.75	2743.1
504.00	2640.2
504.25	2584.7
504.50	2539.1
504.75	2438.1
505.00	2403.4
505.25	2324.2
505.50	2285.8
505.75	2239.6
506.00	2170.0
506.25	2098.3
506.50	2060.0
506.75	2021.9
507.00	1947.8
507.25	1945.7
507.50	1897.3
507.75	1842.8
508.00	1791.1
508.25	1734.3
508.50	1667.8
508.75	1621.9
509.00	1600.2
509.25	1564.2
509.50	1527.5
509.75	1465.3
510.00	1454.0
510.25	1455.7
510.50	1334.7
510.75	1318.5
511.00	1285.9
511.25	1249.0
511.50	1214.7
511.75	1148.2
512.00	1186.0
512.25	1117.6
512.50	1103.7
512.75	1095.6
513.00	1020.0
513.25	1016.9
513.50	1017.0
513.75	951.93
514.00	908.66
514.25	925.47
514.50	891.86
514.75	875.34
515.00	827.74
515.25	821.58
515.50	774.95
515.75	708.17
516.00	717.13
516.25	711.11
516.50	688.99
516.75	666.59
517.00	645.59
517.25	609.46
517.50	592.80
517.75	602.32
518.00	585.24
518.25	570.82
518.50	550.10
518.75	567.04
519.00	524.34
519.25	487.51
519.50	483.73
519.75	477.85
520.00	475.19
520.25	449.57
520.50	413.17
520.75	418.63
521.00	388.11
521.25	434.45
521.50	431.51
521.75	385.03
522.00	344.56
522.25	359.69
522.50	369.35
522.75	320.90
523.00	319.08
523.25	299.20
523.50	340.22
523.75	290.38
524.00	331.68
524.25	276.52
524.50	268.54
524.75	250.90
525.00	266.58
525.25	262.94
525.50	225.28
525.75	274.70
526.00	222.48
526.25	271.48
526.50	241.66
526.75	197.13
527.00	211.55
527.25	221.64
527.50	227.38
527.75	178.93
528.00	200.91
528.25	175.99
528.50	187.61
528.75	175.43
529.00	136.37
529.25	177.81
529.50	164.51
529.75	199.37
530.00	147.29
530.25	154.29
530.50	175.85
530.75	119.99
531.00	115.79
531.25	133.01
531.50	107.25
531.75	104.45
532.00	148.55
532.25	134.41
532.50	112.01
532.75	112.85
533.00	99.267
533.25	90.306
533.50	98.847
533.75	106.13
534.00	100.81
534.25	108.51
534.50	153.59
534.75	96.887
535.00	91.006
535.25	84.706
535.50	99.267
535.75	50.404
536.00	58.244
536.25	84.426
536.50	69.585
536.75	53.484
537.00	91.706
537.25	103.33
537.50	47.323
537.75	79.806
538.00	68.605
538.25	73.785
538.50	89.746
538.75	60.624
539.00	82.466
539.25	66.785
539.50	60.484
539.75	79.806
540.00	58.804
540.25	97.867
540.50	93.947
540.75	90.866
541.00	68.745
541.25	87.786
541.50	57.544
541.75	88.906
542.00	33.042
542.25	60.484
542.50	65.105
542.75	72.665
543.00	38.643
543.25	36.403
543.50	59.504
543.75	70.985
544.00	67.065
544.25	57.824
544.50	84.146
544.75	57.264
545.00	47.603
545.25	30.662
545.50	15.821
545.75	76.165
546.00	49.844
546.25	34.862
546.50	82.746
546.75	87.226
547.00	65.105
547.25	25.482
547.50	54.044
547.75	40.883
548.00	78.126
548.25	74.345
548.50	59.784
548.75	14.561
549.00	82.466
549.25	50.824
549.50	26.462
549.75	27.162
550.00	32.902
550.25	55.584
550.50	47.883
550.75	30.382
551.00	40.463
551.25	36.543
551.50	20.441
551.75	-0.14001
552.00	44.523
552.25	74.625
552.50	45.363
552.75	28.282
553.00	19.741
553.25	71.545
553.50	34.302
553.75	94.227
554.00	31.082
554.25	45.643
554.50	62.864
554.75	43.543
555.00	7.0005
555.25	30.662
555.50	58.104
555.75	23.102
556.00	45.083
556.25	65.945
556.50	41.163
556.75	36.403
557.00	11.761
557.25	35.563
557.50	15.681
557.75	66.645
558.00	51.524
558.25	46.483
558.50	26.602
558.75	43.543
559.00	68.745
559.25	1.8201
559.50	-8.8206
559.75	56.844
560.00	25.202
560.25	30.102
560.50	54.324
560.75	72.245
561.00	62.164
561.25	70.005
561.50	5.0404
561.75	32.622
562.00	26.462
562.25	15.821
562.50	-7.5605
562.75	30.802
563.00	94.787
563.25	64.265
563.50	31.922
563.75	49.143
564.00	9.8007
564.25	29.262
564.50	48.723
564.75	-10.081
565.00	-4.7603
565.25	60.344
565.50	8.6806
565.75	79.666
566.00	42.703
566.25	69.305
566.50	20.581
566.75	45.083
567.00	31.782
567.25	6.7205
567.50	38.643
567.75	2.3802
568.00	48.583
568.25	35.282
568.50	67.765
568.75	65.805
569.00	30.242
569.25	26.882
569.50	28.068
569.75	12.041
570.00	10.501
570.25	16.101
570.50	51.804
570.75	23.802
571.00	52.784
571.25	40.743
571.50	2.3802
571.75	43.543
572.00	28.142
572.25	36.683
572.50	49.423
572.75	38.083
573.00	35.703
573.25	31.362
573.50	47.183
573.75	26.882
574.00	32.762
574.25	48.163
574.50	21.702
574.75	18.061
575.00	11.481
575.25	45.363
575.50	44.943
575.75	25.902
576.00	11.621
576.25	51.384
576.50	38.643
576.75	44.383
577.00	6.0204
577.25	45.223
577.50	52.924
577.75	48.583
578.00	1.1201
578.25	32.902
578.50	47.463
578.75	17.921
579.00	27.162
579.25	36.403
579.50	53.344
579.75	35.422
580.00	49.984
580.25	37.103
580.50	20.861
580.75	27.922
581.00	13.301
581.25	18.621
581.50	83.166
581.75	33.602
582.00	50.264
