Wavelength (nm)	164, SPIE 1994_2115_240, DOEB
400.00	
401.00	
402.00	
403.00	
404.00	
405.00	
406.00	
407.00	
408.00	
409.00	
410.00	
411.00	
412.00	
413.00	
414.00	
415.00	
416.00	
417.00	
418.00	
419.00	
420.00	
421.00	
422.00	
423.00	
424.00	
425.00	
426.00	
427.00	
428.00	
429.00	
430.00	
431.00	
432.00	
433.00	
434.00	
435.00	
436.00	
437.00	
438.00	
439.00	
440.00	
441.00	
442.00	
443.00	
444.00	
445.00	
446.00	
447.00	
448.00	
449.00	
450.00	
451.00	
452.00	
453.00	
454.00	
455.00	
456.00	
457.00	
458.00	
459.00	
460.00	
461.00	
462.00	
463.00	
464.00	
465.00	
466.00	
467.00	
468.00	
469.00	
470.00	
471.00	
472.00	
473.00	
474.00	
475.00	
476.00	
477.00	
478.00	
479.00	
480.00	
481.00	
482.00	
483.00	
484.00	
485.00	
486.00	
487.00	
488.00	
489.00	
490.00	
491.00	
492.00	
493.00	
494.00	
495.00	
496.00	
497.00	
498.00	
499.00	
500.00	
501.00	
502.00	
503.00	
504.00	
505.00	
506.00	
507.00	
508.00	
509.00	
510.00	
511.00	
512.00	
513.00	
514.00	
515.00	
516.00	
517.00	
518.00	
519.00	
520.00	
521.00	
522.00	
523.00	
524.00	
525.00	
526.00	
527.00	
528.00	
529.00	
530.00	
531.00	
532.00	
533.00	
534.00	
535.00	
536.00	
537.00	
538.00	
539.00	
540.00	
541.00	
542.00	
543.00	
544.00	
545.00	
546.00	
547.00	
548.00	
549.00	
550.00	
551.00	
552.00	
553.00	
554.00	
555.00	
556.00	
557.00	
558.00	
559.00	
560.00	
561.00	
562.00	
563.00	
564.00	
565.00	
566.00	
567.00	
568.00	
569.00	
570.00	
571.00	
572.00	
573.00	
574.00	
575.00	
576.00	
577.00	
578.00	
579.00	
580.00	
581.00	
582.00	
583.00	
584.00	
585.00	
586.00	
587.00	
588.00	
589.00	
590.00	
591.00	
592.00	
593.00	
594.00	
595.00	
596.00	
597.00	
598.00	
599.00	
600.00	
601.00	
602.00	
603.00	
604.00	
605.00	
606.00	
607.00	
608.00	
609.00	
610.00	
611.00	
612.00	
613.00	
614.00	
615.00	0.041506
616.00	0.041613
617.00	0.041820
618.00	0.042329
619.00	0.042837
620.00	0.043346
621.00	0.043854
622.00	0.044363
623.00	0.044872
624.00	0.045482
625.00	0.046397
626.00	0.047313
627.00	0.048228
628.00	0.049144
629.00	0.050059
630.00	0.050974
631.00	0.052050
632.00	0.053606
633.00	0.055162
634.00	0.056718
635.00	0.058275
636.00	0.059831
637.00	0.061387
638.00	0.062943
639.00	0.067633
640.00	0.072559
641.00	0.077485
642.00	0.082410
643.00	0.087748
644.00	0.095250
645.00	0.10275
646.00	0.11025
647.00	0.11775
648.00	0.12525
649.00	0.13645
650.00	0.14888
651.00	0.16130
652.00	0.17373
653.00	0.18615
654.00	0.19879
655.00	0.22185
656.00	0.24491
657.00	0.26797
658.00	0.29103
659.00	0.31409
660.00	0.33715
661.00	0.36996
662.00	0.40780
663.00	0.44564
664.00	0.48348
665.00	0.52132
666.00	0.55916
667.00	0.59357
668.00	0.62587
669.00	0.65817
670.00	0.69047
671.00	0.72277
672.00	0.75507
673.00	0.78703
674.00	0.81797
675.00	0.84891
676.00	0.87985
677.00	0.90838
678.00	0.92727
679.00	0.94617
680.00	0.96506
681.00	0.97897
682.00	0.98983
683.00	0.99745
684.00	1.0000
685.00	0.99837
686.00	0.99675
687.00	0.99512
688.00	0.98595
689.00	0.97631
690.00	0.96312
691.00	0.94903
692.00	0.93495
693.00	0.92010
694.00	0.90234
695.00	0.88457
696.00	0.86681
697.00	0.84905
698.00	0.82891
699.00	0.80575
700.00	0.78258
701.00	0.75942
702.00	0.73626
703.00	0.71314
704.00	0.69139
705.00	0.66965
706.00	0.64791
707.00	0.62616
708.00	0.60442
709.00	0.58353
710.00	0.56465
711.00	0.54577
712.00	0.52688
713.00	0.50800
714.00	0.49016
715.00	0.47625
716.00	0.46234
717.00	0.44843
718.00	0.43452
719.00	0.42061
720.00	0.40732
721.00	0.39705
722.00	0.38678
723.00	0.37651
724.00	0.36623
725.00	0.35596
726.00	0.34569
727.00	0.33576
728.00	0.32750
729.00	0.31925
730.00	0.31100
731.00	0.30275
732.00	0.29449
733.00	0.28624
734.00	0.27799
735.00	0.26974
736.00	0.26148
737.00	0.25323
738.00	0.24739
739.00	0.24157
740.00	0.23574
741.00	0.22992
742.00	0.22410
743.00	0.21828
744.00	0.21246
745.00	0.20668
746.00	0.20190
747.00	0.19713
748.00	0.19236
749.00	0.18758
750.00	0.18281
751.00	0.17803
752.00	0.17326
753.00	0.16849
754.00	0.16371
755.00	0.15894
756.00	0.15416
757.00	0.14968
758.00	0.14601
759.00	0.14235
760.00	0.13868
761.00	0.13502
762.00	0.13135
763.00	0.12768
764.00	0.12402
765.00	0.12035
766.00	0.11669
767.00	0.11302
768.00	0.10945
769.00	0.10591
770.00	0.10237
771.00	0.098829
772.00	0.095288
773.00	0.091746
774.00	0.088205
775.00	0.084780
776.00	0.082136
777.00	0.079491
778.00	0.076846
779.00	0.074202
780.00	0.071557
781.00	0.068913
782.00	0.066341
783.00	0.064256
784.00	0.062171
785.00	0.060086
786.00	0.058001
787.00	0.055916
788.00	0.053831
789.00	0.051746
790.00	0.049662
791.00	0.047577
792.00	0.046032
793.00	0.044541
794.00	0.043050
795.00	0.041559
796.00	0.040068
797.00	0.038577
798.00	0.037086
799.00	0.035595
800.00	0.034104
801.00	0.032735
802.00	0.031582
803.00	0.030429
804.00	0.029277
805.00	0.028124
806.00	0.026971
807.00	0.025818
808.00	0.024666
809.00	0.023513
810.00	0.022360
811.00	0.021207
812.00	0.020404
813.00	0.019657
814.00	0.018911
815.00	0.018164
816.00	0.017418
817.00	0.016671
818.00	0.015925
819.00	0.015172
820.00	0.014397
821.00	0.013622
822.00	0.012847
823.00	0.012073
824.00	0.011298
825.00	0.010523
826.00	0.0097484
827.00	0.0089736
828.00	0.0084652
829.00	0.0079679
830.00	0.0074706
831.00	0.0069732
832.00	0.0064759
833.00	0.0059786
834.00	0.0054813
835.00	0.0049840
836.00	0.0044825
837.00	0.0039740
838.00	0.0034655
839.00	0.0029569
840.00	0.0024484
841.00	0.0019398
842.00	0.0014313
843.00	0.0010749
844.00	0.00097765
845.00	0.00088038
846.00	0.00078312
847.00	0.00068585
848.00	0.00058859
849.00	0.00049132
850.00	0.00042752
