Wavelength (nm)	166, OBC 2017_7255, 4
400.00	
401.00	
402.00	
403.00	
404.00	
405.00	
406.00	
407.00	
408.00	
409.00	
410.00	
411.00	
412.00	
413.00	
414.00	
415.00	
416.00	
417.00	
418.00	
419.00	
420.00	
421.00	
422.00	
423.00	
424.00	
425.00	
426.00	
427.00	
428.00	
429.00	
430.00	
431.00	
432.00	
433.00	
434.00	
435.00	
436.00	
437.00	
438.00	
439.00	
440.00	
441.00	
442.00	
443.00	
444.00	
445.00	
446.00	
447.00	
448.00	
449.00	
450.00	
451.00	
452.00	
453.00	
454.00	
455.00	
456.00	
457.00	
458.00	
459.00	
460.00	
461.00	
462.00	
463.00	
464.00	
465.00	
466.00	
467.00	
468.00	
469.00	
470.00	
471.00	
472.00	
473.00	
474.00	
475.00	
476.00	
477.00	
478.00	
479.00	
480.00	
481.00	
482.00	
483.00	
484.00	
485.00	
486.00	
487.00	
488.00	
489.00	
490.00	
491.00	
492.00	
493.00	
494.00	
495.00	
496.00	
497.00	
498.00	
499.00	
500.00	
501.00	
502.00	
503.00	
504.00	
505.00	
506.00	
507.00	
508.00	
509.00	
510.00	
511.00	
512.00	
513.00	
514.00	
515.00	
516.00	
517.00	
518.00	
519.00	
520.00	
521.00	
522.00	
523.00	
524.00	
525.00	
526.00	
527.00	
528.00	
529.00	
530.00	
531.00	
532.00	
533.00	
534.00	
535.00	
536.00	
537.00	
538.00	
539.00	
540.00	
541.00	
542.00	
543.00	
544.00	
545.00	0.13125
546.00	0.12963
547.00	0.12618
548.00	0.12178
549.00	0.11635
550.00	0.11263
551.00	0.11015
552.00	0.10904
553.00	0.10900
554.00	0.11160
555.00	0.11564
556.00	0.12138
557.00	0.13010
558.00	0.14068
559.00	0.15508
560.00	0.16921
561.00	0.18863
562.00	0.21307
563.00	0.24304
564.00	0.27811
565.00	0.31611
566.00	0.35485
567.00	0.40514
568.00	0.45617
569.00	0.50782
570.00	0.55947
571.00	0.61718
572.00	0.67661
573.00	0.73178
574.00	0.78654
575.00	0.84076
576.00	0.88120
577.00	0.91514
578.00	0.94638
579.00	0.97866
580.00	0.99585
581.00	1.0000
582.00	0.99721
583.00	0.99026
584.00	0.97622
585.00	0.95530
586.00	0.93133
587.00	0.90735
588.00	0.87794
589.00	0.84631
590.00	0.81375
591.00	0.78073
592.00	0.74937
593.00	0.71840
594.00	0.68673
595.00	0.65138
596.00	0.61709
597.00	0.58677
598.00	0.55646
599.00	0.53037
600.00	0.50585
601.00	0.48228
602.00	0.45997
603.00	0.43765
604.00	0.41632
605.00	0.39593
606.00	0.37690
607.00	0.36001
608.00	0.34329
609.00	0.32831
610.00	0.31333
611.00	0.29978
612.00	0.28662
613.00	0.27375
614.00	0.26196
615.00	0.25016
616.00	0.23921
617.00	0.22844
618.00	0.21806
619.00	0.20871
620.00	0.19936
621.00	0.19124
622.00	0.18344
623.00	0.17574
624.00	0.16844
625.00	0.16114
626.00	0.15408
627.00	0.14742
628.00	0.14076
629.00	0.13453
630.00	0.12901
631.00	0.12348
632.00	0.11796
633.00	0.11256
634.00	0.10719
635.00	0.10182
636.00	0.097236
637.00	0.093496
638.00	0.089755
639.00	0.086014
640.00	0.082274
641.00	0.078475
642.00	0.074661
643.00	0.070847
644.00	0.067033
645.00	0.063423
646.00	0.060680
647.00	0.057937
648.00	0.055194
649.00	0.052451
650.00	0.049923
651.00	0.047432
652.00	0.044942
653.00	0.042451
654.00	0.039982
655.00	0.037803
656.00	0.035624
657.00	0.033444
658.00	0.031265
659.00	0.029434
660.00	0.027995
661.00	0.026556
662.00	0.025117
663.00	0.023677
664.00	0.022238
665.00	0.020948
666.00	0.019693
667.00	0.018437
668.00	0.017182
669.00	0.015927
670.00	0.014839
671.00	0.014106
672.00	0.013373
673.00	0.012640
674.00	0.011908
675.00	0.011236
676.00	0.010828
677.00	0.010419
678.00	0.010010
679.00	0.0096014
680.00	0.0091672
681.00	0.0087154
682.00	0.0082636
683.00	0.0078117
684.00	0.0072894
685.00	0.0066736
686.00	0.0060578
687.00	0.0054420
688.00	0.0049235
689.00	0.0045778
690.00	0.0042321
691.00	0.0038864
692.00	0.0035407
693.00	0.0031950
694.00	0.0028494
695.00	0.0025417
696.00	0.0025417
697.00	0.0025417
698.00	0.0025417
699.00	0.0025417
700.00	0.0025417
701.00	
702.00	
703.00	
704.00	
705.00	
706.00	
707.00	
708.00	
709.00	
710.00	
711.00	
712.00	
713.00	
714.00	
715.00	
716.00	
717.00	
718.00	
719.00	
720.00	
721.00	
722.00	
723.00	
724.00	
725.00	
726.00	
727.00	
728.00	
729.00	
730.00	
731.00	
732.00	
733.00	
734.00	
735.00	
736.00	
737.00	
738.00	
739.00	
740.00	
741.00	
742.00	
743.00	
744.00	
745.00	
746.00	
747.00	
748.00	
749.00	
750.00	
751.00	
752.00	
753.00	
754.00	
755.00	
756.00	
757.00	
758.00	
759.00	
760.00	
761.00	
762.00	
763.00	
764.00	
765.00	
766.00	
767.00	
768.00	
769.00	
770.00	
771.00	
772.00	
773.00	
774.00	
775.00	
776.00	
777.00	
778.00	
779.00	
780.00	
781.00	
782.00	
783.00	
784.00	
785.00	
786.00	
787.00	
788.00	
789.00	
790.00	
791.00	
792.00	
793.00	
794.00	
795.00	
796.00	
797.00	
798.00	
799.00	
800.00	
801.00	
802.00	
803.00	
804.00	
805.00	
806.00	
807.00	
808.00	
809.00	
810.00	
811.00	
812.00	
813.00	
814.00	
815.00	
816.00	
817.00	
818.00	
819.00	
820.00	
821.00	
822.00	
823.00	
824.00	
825.00	
826.00	
827.00	
828.00	
829.00	
830.00	
831.00	
832.00	
833.00	
834.00	
835.00	
836.00	
837.00	
838.00	
839.00	
840.00	
841.00	
842.00	
843.00	
844.00	
845.00	
846.00	
847.00	
848.00	
849.00	
850.00	
