Wavelength (nm)	K13 abs e
200.00	43749
201.00	41546
202.00	40137
203.00	39420
204.00	39498
205.00	40414
206.00	41648
207.00	43323
208.00	45416
209.00	47915
210.00	50729
211.00	53711
212.00	56529
213.00	58965
214.00	60974
215.00	62384
216.00	63333
217.00	63465
218.00	62791
219.00	61286
220.00	58889
221.00	55970
222.00	52650
223.00	49433
224.00	46560
225.00	44154
226.00	42247
227.00	40851
228.00	39810
229.00	39048
230.00	38469
231.00	37899
232.00	37228
233.00	36299
234.00	35084
235.00	33658
236.00	32147
237.00	30573
238.00	29030
239.00	27576
240.00	26157
241.00	24837
242.00	23637
243.00	22526
244.00	21539
245.00	20675
246.00	19913
247.00	19269
248.00	18737
249.00	18307
250.00	17976
251.00	17730
252.00	17574
253.00	17506
254.00	17458
255.00	17433
256.00	17395
257.00	17379
258.00	17424
259.00	17538
260.00	17726
261.00	17994
262.00	18187
263.00	18287
264.00	18245
265.00	18031
266.00	17681
267.00	17246
268.00	16751
269.00	16202
270.00	15624
271.00	15028
272.00	14439
273.00	13909
274.00	13429
275.00	12949
276.00	12580
277.00	12249
278.00	11970
279.00	11739
280.00	11534
281.00	11360
282.00	11216
283.00	11060
284.00	10859
285.00	10659
286.00	10503
287.00	10334
288.00	10113
289.00	9951.4
290.00	9723.7
291.00	9537.6
292.00	9404.3
293.00	9185.1
294.00	8991.0
295.00	8771.5
296.00	8593.9
297.00	8426.6
298.00	8260.4
299.00	8152.5
300.00	8056.1
301.00	7978.6
302.00	7964.2
303.00	7972.8
304.00	8003.7
305.00	8009.1
306.00	7992.0
307.00	8023.1
308.00	8026.1
309.00	8018.1
310.00	8036.2
311.00	8029.2
312.00	8018.6
313.00	8053.7
314.00	8056.2
315.00	8082.1
316.00	8104.7
317.00	8218.4
318.00	8331.3
319.00	8425.4
320.00	8531.3
321.00	8597.9
322.00	8690.7
323.00	8682.5
324.00	8580.9
325.00	8425.2
326.00	8174.3
327.00	7919.7
328.00	7562.8
329.00	7244.4
330.00	6852.6
331.00	6531.7
332.00	6245.0
333.00	5973.7
334.00	5721.5
335.00	5546.6
336.00	5420.6
337.00	5338.2
338.00	5250.7
339.00	5206.7
340.00	5166.6
341.00	5170.6
342.00	5162.8
343.00	5172.5
344.00	5199.1
345.00	5240.0
346.00	5319.5
347.00	5338.4
348.00	5386.8
349.00	5480.7
350.00	5585.6
351.00	5679.4
352.00	5754.1
353.00	5899.4
354.00	6056.3
355.00	6197.9
356.00	6323.2
357.00	6468.1
358.00	6589.1
359.00	6734.6
360.00	6905.2
361.00	7080.0
362.00	7265.0
363.00	7402.9
364.00	7566.7
365.00	7678.8
366.00	7830.2
367.00	8020.7
368.00	8114.7
369.00	8314.5
370.00	8430.4
371.00	8590.9
372.00	8716.7
373.00	8856.3
374.00	9019.4
375.00	9132.9
376.00	9257.7
377.00	9442.5
378.00	9567.4
379.00	9656.2
380.00	9707.5
381.00	9826.0
382.00	9966.4
383.00	9953.6
384.00	10062
385.00	10180
386.00	10201
387.00	10246
388.00	10343
389.00	10355
390.00	10432
391.00	10530
392.00	10624
393.00	10740
394.00	10781
395.00	10818
396.00	10860
397.00	10835
398.00	10697
399.00	10553
400.00	10337
401.00	10022
402.00	9719.7
403.00	9286.4
404.00	8859.1
405.00	8452.7
406.00	8162.2
407.00	7708.1
408.00	7345.8
409.00	7048.6
410.00	6737.7
411.00	6532.5
412.00	6419.6
413.00	6173.7
414.00	5954.5
415.00	5783.8
416.00	5737.5
417.00	5613.2
418.00	5434.8
419.00	5403.0
420.00	5377.7
421.00	5224.4
422.00	5116.6
423.00	5050.3
424.00	5012.3
425.00	4992.5
426.00	4898.6
427.00	4908.4
428.00	4818.0
429.00	4787.5
430.00	4796.0
431.00	4704.9
432.00	4677.4
433.00	4666.7
434.00	4664.0
435.00	4567.0
436.00	4517.7
437.00	4487.6
438.00	4424.8
439.00	4421.1
440.00	4339.3
441.00	4295.4
442.00	4231.8
443.00	4168.4
444.00	4156.7
445.00	4157.3
446.00	4109.6
447.00	4106.4
448.00	4157.2
449.00	4152.1
450.00	4117.4
451.00	4189.1
452.00	4208.2
453.00	4199.5
454.00	4274.4
455.00	4232.4
456.00	4217.7
457.00	4200.4
458.00	4192.5
459.00	4182.0
460.00	4133.3
461.00	4028.2
462.00	4044.4
463.00	3865.2
464.00	3836.8
465.00	3670.2
466.00	3613.8
467.00	3459.9
468.00	3269.1
469.00	3146.7
470.00	2947.7
471.00	2893.7
472.00	2755.4
473.00	2609.8
474.00	2553.7
475.00	2425.8
476.00	2344.9
477.00	2246.3
478.00	2199.4
479.00	2056.5
480.00	1965.5
481.00	1950.9
482.00	1884.0
483.00	1850.9
484.00	1804.6
485.00	1796.2
486.00	1688.7
487.00	1579.9
488.00	1478.6
489.00	1554.4
490.00	1613.5
491.00	1585.9
492.00	1595.9
493.00	1484.3
494.00	1515.3
495.00	1535.6
496.00	1452.0
497.00	1420.4
498.00	1433.6
499.00	1454.1
500.00	1343.7
501.00	1425.3
502.00	1402.6
503.00	1279.2
504.00	1328.3
505.00	1328.1
506.00	1199.7
507.00	1177.2
508.00	1239.7
509.00	1158.6
510.00	1149.0
511.00	1170.6
512.00	1156.4
513.00	1137.7
514.00	1126.6
515.00	1130.3
516.00	1121.8
517.00	1110.4
518.00	1061.4
519.00	1053.9
520.00	1057.3
521.00	1133.4
522.00	1185.3
523.00	1072.9
524.00	1060.3
525.00	1009.5
526.00	1072.4
527.00	972.33
528.00	1130.8
529.00	1229.5
530.00	1122.9
531.00	1227.8
532.00	1019.0
533.00	1026.6
534.00	1128.7
535.00	1127.9
536.00	1156.4
537.00	1102.2
538.00	1226.9
539.00	1232.9
540.00	1176.0
541.00	1244.2
542.00	1223.9
543.00	1280.4
544.00	1284.3
545.00	1297.0
546.00	1308.3
547.00	1352.2
548.00	1351.5
549.00	1387.8
550.00	1350.1
551.00	1426.2
552.00	1459.7
553.00	1525.3
554.00	1573.4
555.00	1536.0
556.00	1508.2
557.00	1583.5
558.00	1679.5
559.00	1695.9
560.00	1680.9
561.00	1670.3
562.00	1749.1
563.00	1830.1
564.00	1869.9
565.00	1891.9
566.00	1959.3
567.00	2007.2
568.00	2039.9
569.00	2008.3
570.00	2046.3
571.00	2117.6
572.00	2127.3
573.00	2167.2
574.00	2232.9
575.00	2262.3
576.00	2338.6
577.00	2425.1
578.00	2456.6
579.00	2492.4
580.00	2597.5
581.00	2666.2
582.00	2707.0
583.00	2746.0
584.00	2899.8
585.00	2969.8
586.00	3018.4
587.00	3082.7
588.00	3196.1
589.00	3235.2
590.00	3388.6
591.00	3510.1
592.00	3599.1
593.00	3688.7
594.00	3742.0
595.00	3827.8
596.00	3934.9
597.00	4071.6
598.00	4132.2
599.00	4237.4
600.00	4315.0
601.00	4434.1
602.00	4543.2
603.00	4688.6
604.00	4764.8
605.00	4883.7
606.00	4993.7
607.00	5114.1
608.00	5260.2
609.00	5393.7
610.00	5538.6
611.00	5663.1
612.00	5804.2
613.00	5944.4
614.00	6070.1
615.00	6240.0
616.00	6404.1
617.00	6588.3
618.00	6793.7
619.00	6951.7
620.00	7190.0
621.00	7274.0
622.00	7581.8
623.00	7748.8
624.00	7952.8
625.00	8149.0
626.00	8383.5
627.00	8629.7
628.00	8829.4
629.00	9152.1
630.00	9360.9
631.00	9644.8
632.00	9868.4
633.00	10205
634.00	10472
635.00	10692
636.00	10992
637.00	11293
638.00	11533
639.00	11874
640.00	12170
641.00	12441
642.00	12785
643.00	13114
644.00	13453
645.00	13689
646.00	14058
647.00	14297
648.00	14654
649.00	14963
650.00	15263
651.00	15574
652.00	15933
653.00	16241
654.00	16481
655.00	16893
656.00	17015
657.00	16933
658.00	17569
659.00	18125
660.00	18448
661.00	18886
662.00	19254
663.00	19596
664.00	20029
665.00	20395
666.00	20723
667.00	21175
668.00	21643
669.00	22006
670.00	22405
671.00	22898
672.00	23393
673.00	23881
674.00	24433
675.00	24913
676.00	25510
677.00	26182
678.00	26852
679.00	27472
680.00	28123
681.00	28822
682.00	29663
683.00	30397
684.00	31173
685.00	31940
686.00	32796
687.00	33749
688.00	34651
689.00	35658
690.00	36635
691.00	37645
692.00	38567
693.00	39699
694.00	40691
695.00	41850
696.00	42971
697.00	44057
698.00	45189
699.00	46359
700.00	47452
701.00	48611
702.00	49836
703.00	50886
704.00	52014
705.00	53136
706.00	54196
707.00	55231
708.00	56213
709.00	57330
710.00	58334
711.00	59245
712.00	60084
713.00	60911
714.00	61666
715.00	62417
716.00	63238
717.00	63804
718.00	64454
719.00	65068
720.00	65541
721.00	66035
722.00	66478
723.00	66995
724.00	67339
725.00	67641
726.00	67953
727.00	68199
728.00	68592
729.00	69015
730.00	69196
731.00	69563
732.00	69889
733.00	70433
734.00	70758
735.00	71160
736.00	71667
737.00	72186
738.00	72748
739.00	73467
740.00	74094
741.00	74991
742.00	76100
743.00	77121
744.00	78208
745.00	79477
746.00	80879
747.00	82341
748.00	83869
749.00	85592
750.00	87402
751.00	89484
752.00	91641
753.00	93930
754.00	96269
755.00	98865
756.00	1.0179e+05
757.00	1.0452e+05
758.00	1.0750e+05
759.00	1.1039e+05
760.00	1.1384e+05
761.00	1.1700e+05
762.00	1.2065e+05
763.00	1.2400e+05
764.00	1.2757e+05
765.00	1.3145e+05
766.00	1.3508e+05
767.00	1.3879e+05
768.00	1.4305e+05
769.00	1.4702e+05
770.00	1.5078e+05
771.00	1.5425e+05
772.00	1.5827e+05
773.00	1.6225e+05
774.00	1.6552e+05
775.00	1.6915e+05
776.00	1.7279e+05
777.00	1.7611e+05
778.00	1.7929e+05
779.00	1.8194e+05
780.00	1.8434e+05
781.00	1.8696e+05
782.00	1.8847e+05
783.00	1.8969e+05
784.00	1.9231e+05
785.00	1.9268e+05
786.00	1.9334e+05
787.00	1.9381e+05
788.00	1.9396e+05
789.00	1.9400e+05
790.00	1.9268e+05
791.00	1.9157e+05
792.00	1.9002e+05
793.00	1.8763e+05
794.00	1.8561e+05
795.00	1.8354e+05
796.00	1.8023e+05
797.00	1.7721e+05
798.00	1.7350e+05
799.00	1.6964e+05
800.00	1.6529e+05
801.00	1.6089e+05
802.00	1.5643e+05
803.00	1.5189e+05
804.00	1.4695e+05
805.00	1.4156e+05
806.00	1.3663e+05
807.00	1.3194e+05
808.00	1.2688e+05
809.00	1.2166e+05
810.00	1.1694e+05
811.00	1.1140e+05
812.00	1.0652e+05
813.00	1.0137e+05
814.00	96597
815.00	92186
816.00	87334
817.00	82439
818.00	78322
819.00	74173
820.00	70040
821.00	65964
822.00	62309
823.00	58781
824.00	55278
825.00	51764
826.00	48624
827.00	45734
828.00	42862
829.00	40172
830.00	37596
831.00	35324
832.00	32875
833.00	30613
834.00	28520
835.00	26664
836.00	25013
837.00	23301
838.00	21689
839.00	20165
840.00	18729
841.00	17413
842.00	16300
843.00	14901
844.00	13894
845.00	12937
846.00	12035
847.00	11113
848.00	10308
849.00	9547.2
850.00	8814.9
851.00	8082.4
852.00	7390.9
853.00	6920.5
854.00	6410.6
855.00	6032.5
856.00	5575.3
857.00	5129.2
858.00	4759.1
859.00	4311.3
860.00	4046.0
861.00	3638.2
862.00	3403.1
863.00	3135.5
864.00	3005.3
865.00	2745.5
866.00	2577.4
867.00	2362.8
868.00	2248.6
869.00	2073.9
870.00	1904.8
871.00	1791.5
872.00	1637.9
873.00	1453.3
874.00	1417.6
875.00	1291.6
876.00	1251.0
877.00	1256.8
878.00	1047.9
879.00	1064.0
880.00	920.00
881.00	1019.9
882.00	945.61
883.00	875.84
884.00	746.75
885.00	849.49
886.00	757.49
887.00	742.99
888.00	661.74
889.00	665.78
890.00	527.05
891.00	653.11
892.00	594.81
893.00	533.66
894.00	501.25
895.00	449.75
896.00	527.33
897.00	502.26
898.00	505.84
899.00	578.74
900.00	472.70
901.00	385.85
902.00	376.57
903.00	359.04
904.00	452.50
905.00	414.13
906.00	522.18
907.00	447.82
908.00	503.36
909.00	428.54
910.00	464.62
911.00	324.70
912.00	346.46
913.00	426.98
914.00	346.65
915.00	355.28
916.00	402.83
917.00	340.13
918.00	283.94
919.00	508.32
920.00	412.47
921.00	398.79
922.00	353.35
923.00	279.62
924.00	338.29
925.00	338.57
926.00	340.49
927.00	344.17
928.00	263.92
929.00	407.88
930.00	381.90
931.00	431.94
932.00	334.80
933.00	536.78
934.00	330.39
935.00	327.37
936.00	418.99
937.00	373.82
938.00	386.58
939.00	310.29
940.00	340.60
941.00	487.11
942.00	358.21
943.00	515.67
944.00	485.46
945.00	409.99
946.00	428.91
947.00	399.99
948.00	474.81
949.00	444.06
950.00	488.58
