Wavelength (nm)	UroP I (in DMSO).abs
300.00	0.036898
301.00	0.038243
302.00	0.039468
303.00	0.041026
304.00	0.042416
305.00	0.044483
306.00	0.045878
307.00	0.046955
308.00	0.048785
309.00	0.050548
310.00	0.051918
311.00	0.053674
312.00	0.055445
313.00	0.057120
314.00	0.058731
315.00	0.060532
316.00	0.062333
317.00	0.064184
318.00	0.065961
319.00	0.067582
320.00	0.069304
321.00	0.071119
322.00	0.072869
323.00	0.074450
324.00	0.076167
325.00	0.077676
326.00	0.079032
327.00	0.080553
328.00	0.081937
329.00	0.083357
330.00	0.084882
331.00	0.086080
332.00	0.087397
333.00	0.088806
334.00	0.090384
335.00	0.092179
336.00	0.094021
337.00	0.096215
338.00	0.098591
339.00	0.10130
340.00	0.10434
341.00	0.10759
342.00	0.11125
343.00	0.11515
344.00	0.11943
345.00	0.12378
346.00	0.12857
347.00	0.13342
348.00	0.13852
349.00	0.14369
350.00	0.14830
351.00	0.15234
352.00	0.15652
353.00	0.16064
354.00	0.16475
355.00	0.16924
356.00	0.17418
357.00	0.17976
358.00	0.18586
359.00	0.19282
360.00	0.20099
361.00	0.20972
362.00	0.21915
363.00	0.22898
364.00	0.23888
365.00	0.24937
366.00	0.26010
367.00	0.27149
368.00	0.28237
369.00	0.29349
370.00	0.30447
371.00	0.31582
372.00	0.32690
373.00	0.33735
374.00	0.34733
375.00	0.35657
376.00	0.36485
377.00	0.37292
378.00	0.38123
379.00	0.39004
380.00	0.39924
381.00	0.40946
382.00	0.42212
383.00	0.43582
384.00	0.45146
385.00	0.46958
386.00	0.48867
387.00	0.50973
388.00	0.53237
389.00	0.55676
390.00	0.58395
391.00	0.61458
392.00	0.64752
393.00	0.68384
394.00	0.71958
395.00	0.75849
396.00	0.79889
397.00	0.84041
398.00	0.88055
399.00	0.91701
400.00	0.94805
401.00	0.97440
402.00	0.99231
403.00	1.0000
404.00	0.99565
405.00	0.97849
406.00	0.94790
407.00	0.90470
408.00	0.85088
409.00	0.79175
410.00	0.73090
411.00	0.66930
412.00	0.60949
413.00	0.55359
414.00	0.50301
415.00	0.45295
416.00	0.40615
417.00	0.36082
418.00	0.31829
419.00	0.28018
420.00	0.24581
421.00	0.21581
422.00	0.19048
423.00	0.16847
424.00	0.14922
425.00	0.13226
426.00	0.11755
427.00	0.10414
428.00	0.093306
429.00	0.083772
430.00	0.075149
431.00	0.068490
432.00	0.062145
433.00	0.056005
434.00	0.050671
435.00	0.047056
436.00	0.043592
437.00	0.040100
438.00	0.037196
439.00	0.034900
440.00	0.032839
441.00	0.030964
442.00	0.029406
443.00	0.028320
444.00	0.027313
445.00	0.026419
446.00	0.025683
447.00	0.025272
448.00	0.024605
449.00	0.024086
450.00	0.023794
451.00	0.023395
452.00	0.023377
453.00	0.023266
454.00	0.023088
455.00	0.022700
456.00	0.022548
457.00	0.022757
458.00	0.022773
459.00	0.022935
460.00	0.023051
461.00	0.023060
462.00	0.022996
463.00	0.023272
464.00	0.023788
465.00	0.024297
466.00	0.024894
467.00	0.025368
468.00	0.025617
469.00	0.026110
470.00	0.026785
471.00	0.027006
472.00	0.027298
473.00	0.027691
474.00	0.027586
475.00	0.028012
476.00	0.028717
477.00	0.029059
478.00	0.029840
479.00	0.030310
480.00	0.031328
481.00	0.033273
482.00	0.035315
483.00	0.037358
484.00	0.039767
485.00	0.041840
486.00	0.044621
487.00	0.048272
488.00	0.052075
489.00	0.054273
490.00	0.057199
491.00	0.060604
492.00	0.064486
493.00	0.068200
494.00	0.071880
495.00	0.075086
496.00	0.078750
497.00	0.081927
498.00	0.084448
499.00	0.084951
500.00	0.084009
501.00	0.082766
502.00	0.081408
503.00	0.079809
504.00	0.077413
505.00	0.073916
506.00	0.069283
507.00	0.064934
508.00	0.060084
509.00	0.055016
510.00	0.049820
511.00	0.044443
512.00	0.039470
513.00	0.035614
514.00	0.032224
515.00	0.029625
516.00	0.027482
517.00	0.026092
518.00	0.024973
519.00	0.024781
520.00	0.025110
521.00	0.026012
522.00	0.026910
523.00	0.028654
524.00	0.031369
525.00	0.034632
526.00	0.037838
527.00	0.040762
528.00	0.043157
529.00	0.045547
530.00	0.047910
531.00	0.049959
532.00	0.050977
533.00	0.050814
534.00	0.050108
535.00	0.048814
536.00	0.046616
537.00	0.043457
538.00	0.039333
539.00	0.034622
540.00	0.030142
541.00	0.026020
542.00	0.023135
543.00	0.020831
544.00	0.018900
545.00	0.017392
546.00	0.016134
547.00	0.015033
548.00	0.014447
549.00	0.013796
550.00	0.013546
551.00	0.013330
552.00	0.013135
553.00	0.013231
554.00	0.013499
555.00	0.013917
556.00	0.014753
557.00	0.015419
558.00	0.016172
559.00	0.017135
560.00	0.018534
561.00	0.020017
562.00	0.022088
563.00	0.024748
564.00	0.027963
565.00	0.031723
566.00	0.035197
567.00	0.037464
568.00	0.038151
569.00	0.037658
570.00	0.036135
571.00	0.034900
572.00	0.034011
573.00	0.032878
574.00	0.031790
575.00	0.031036
576.00	0.029785
577.00	0.028094
578.00	0.027476
579.00	0.025957
580.00	0.024217
581.00	0.021992
582.00	0.020551
583.00	0.018284
584.00	0.016086
585.00	0.014223
586.00	0.012982
587.00	0.011540
588.00	0.010566
589.00	0.010217
590.00	0.0094561
591.00	0.0092265
592.00	0.0091770
593.00	0.0092106
594.00	0.0094618
595.00	0.0092686
596.00	0.0090987
597.00	0.0084976
598.00	0.0078901
599.00	0.0075979
600.00	0.0069428
601.00	0.0064172
602.00	0.0059610
603.00	0.0056745
604.00	0.0058117
605.00	0.0057238
606.00	0.0055876
607.00	0.0058359
608.00	0.0060636
609.00	0.0063370
610.00	0.0067179
611.00	0.0071686
612.00	0.0076063
613.00	0.0080189
614.00	0.0085546
615.00	0.0093414
616.00	0.010296
617.00	0.011326
618.00	0.012835
619.00	0.014843
620.00	0.016704
621.00	0.017972
622.00	0.018756
623.00	0.018499
624.00	0.017163
625.00	0.014858
626.00	0.012308
627.00	0.0098863
628.00	0.0079478
629.00	0.0061644
630.00	0.0047336
631.00	0.0036763
632.00	0.0029913
633.00	0.0025237
634.00	0.0023920
635.00	0.0021485
636.00	0.0018731
637.00	0.0017574
638.00	0.0018498
639.00	0.0014242
640.00	0.0012263
641.00	0.0013775
642.00	0.0010910
643.00	0.0011218
644.00	0.0010961
645.00	0.0016519
646.00	0.0020532
647.00	0.0024199
648.00	0.0023043
649.00	0.0020281
650.00	0.0015679
651.00	0.0015465
652.00	0.0013869
653.00	0.0013607
654.00	0.0013701
655.00	0.00091369
656.00	0.00097863
657.00	0.00097863
658.00	0.00097863
659.00	0.0013309
660.00	0.0012133
661.00	0.0011573
662.00	0.0010406
663.00	0.0010136
664.00	0.00098649
665.00	0.0010798
666.00	0.0010621
667.00	0.00093050
668.00	0.0011330
669.00	0.0011237
670.00	0.00093142
671.00	0.00097342
672.00	0.0010798
673.00	0.0010341
674.00	0.0011479
675.00	0.00099863
676.00	0.00089315
677.00	0.00089409
678.00	0.00092676
679.00	0.00092956
680.00	0.0010294
681.00	0.0011031
682.00	0.0010798
683.00	0.00085023
684.00	0.00094075
685.00	0.0011703
686.00	0.0011816
687.00	0.0011115
688.00	0.00090437
689.00	0.00096129
690.00	0.00094169
691.00	0.00090343
692.00	0.00096968
693.00	0.00082410
694.00	0.00067756
695.00	0.00059264
696.00	0.00047225
697.00	0.00053944
698.00	0.00040785
699.00	0.00024066
700.00	0.00022382
