Wavelength (nm)	134, NJC 2008_1162, BD
400.00	
401.00	
402.00	
403.00	
404.00	
405.00	
406.00	
407.00	
408.00	
409.00	
410.00	
411.00	
412.00	
413.00	
414.00	
415.00	
416.00	
417.00	
418.00	
419.00	
420.00	
421.00	
422.00	
423.00	
424.00	
425.00	
426.00	
427.00	
428.00	
429.00	
430.00	
431.00	
432.00	
433.00	
434.00	
435.00	
436.00	
437.00	
438.00	
439.00	
440.00	
441.00	
442.00	
443.00	
444.00	
445.00	
446.00	
447.00	
448.00	
449.00	
450.00	
451.00	
452.00	
453.00	
454.00	
455.00	
456.00	
457.00	
458.00	
459.00	
460.00	
461.00	
462.00	
463.00	
464.00	
465.00	
466.00	
467.00	
468.00	
469.00	
470.00	
471.00	
472.00	
473.00	
474.00	
475.00	
476.00	
477.00	
478.00	
479.00	
480.00	0.066823
481.00	0.068176
482.00	0.069529
483.00	0.070883
484.00	0.072236
485.00	0.073770
486.00	0.076329
487.00	0.078888
488.00	0.081447
489.00	0.083923
490.00	0.085968
491.00	0.088013
492.00	0.090057
493.00	0.092102
494.00	0.094147
495.00	0.096192
496.00	0.098236
497.00	0.099890
498.00	0.10135
499.00	0.10281
500.00	0.10427
501.00	0.10573
502.00	0.10719
503.00	0.10865
504.00	0.11038
505.00	0.11330
506.00	0.11622
507.00	0.11914
508.00	0.12206
509.00	0.12498
510.00	0.12708
511.00	0.12881
512.00	0.13054
513.00	0.13226
514.00	0.13399
515.00	0.13663
516.00	0.14296
517.00	0.14928
518.00	0.15745
519.00	0.17300
520.00	0.18915
521.00	0.20555
522.00	0.22395
523.00	0.24984
524.00	0.27560
525.00	0.30089
526.00	0.32660
527.00	0.35383
528.00	0.38105
529.00	0.41441
530.00	0.44795
531.00	0.48655
532.00	0.52355
533.00	0.55430
534.00	0.58505
535.00	0.61630
536.00	0.64774
537.00	0.67917
538.00	0.71057
539.00	0.74198
540.00	0.77035
541.00	0.79764
542.00	0.82493
543.00	0.85164
544.00	0.87747
545.00	0.90329
546.00	0.91824
547.00	0.93319
548.00	0.94814
549.00	0.96309
550.00	0.97337
551.00	0.98365
552.00	0.99393
553.00	0.99619
554.00	0.99809
555.00	1.0000
556.00	0.99747
557.00	0.99494
558.00	0.98925
559.00	0.98340
560.00	0.97651
561.00	0.96962
562.00	0.96273
563.00	0.95365
564.00	0.93972
565.00	0.92580
566.00	0.91187
567.00	0.89659
568.00	0.87783
569.00	0.85908
570.00	0.84033
571.00	0.82003
572.00	0.79930
573.00	0.77856
574.00	0.76056
575.00	0.74328
576.00	0.72601
577.00	0.70821
578.00	0.68998
579.00	0.67175
580.00	0.65507
581.00	0.64199
582.00	0.62892
583.00	0.61585
584.00	0.60267
585.00	0.58792
586.00	0.57316
587.00	0.55841
588.00	0.54365
589.00	0.53043
590.00	0.51756
591.00	0.50469
592.00	0.49180
593.00	0.47864
594.00	0.46548
595.00	0.45232
596.00	0.43926
597.00	0.42740
598.00	0.41553
599.00	0.40367
600.00	0.39245
601.00	0.38254
602.00	0.37264
603.00	0.36273
604.00	0.35283
605.00	0.34427
606.00	0.33597
607.00	0.32767
608.00	0.31938
609.00	0.31108
610.00	0.30278
611.00	0.29500
612.00	0.28758
613.00	0.28015
614.00	0.27272
615.00	0.26529
616.00	0.25787
617.00	0.25133
618.00	0.24537
619.00	0.23941
620.00	0.23345
621.00	0.22749
622.00	0.22153
623.00	0.21593
624.00	0.21092
625.00	0.20591
626.00	0.20091
627.00	0.19590
628.00	0.19089
629.00	0.18588
630.00	0.18104
631.00	0.17648
632.00	0.17191
633.00	0.16734
634.00	0.16277
635.00	0.15821
636.00	0.15364
637.00	0.14907
638.00	0.14450
639.00	0.13993
640.00	0.13631
641.00	0.13321
642.00	0.13011
643.00	0.12702
644.00	0.12392
645.00	0.12082
646.00	0.11773
647.00	0.11463
648.00	0.11153
649.00	0.10844
650.00	0.10534
651.00	0.10224
652.00	0.099215
653.00	0.096558
654.00	0.093901
655.00	0.091245
656.00	0.088588
657.00	0.085931
658.00	0.083274
659.00	0.080618
660.00	0.077961
661.00	0.075304
662.00	0.072648
663.00	0.070133
664.00	0.068268
665.00	0.066403
666.00	0.064538
667.00	0.062673
668.00	0.060808
669.00	0.058942
670.00	0.057077
671.00	0.055212
672.00	0.053347
673.00	0.051482
674.00	0.049617
675.00	0.048161
676.00	0.047206
677.00	0.046251
678.00	0.045296
679.00	0.044341
680.00	0.043386
681.00	0.042431
682.00	0.041476
683.00	0.040521
684.00	0.039565
685.00	0.038610
686.00	0.037655
687.00	0.036700
688.00	0.035638
689.00	0.034455
690.00	0.033272
691.00	0.032089
692.00	0.030906
693.00	0.029723
694.00	0.028540
695.00	0.027357
696.00	0.026174
697.00	0.024991
698.00	0.023808
699.00	0.023442
700.00	0.023084
701.00	0.022726
702.00	0.022369
703.00	0.022011
704.00	0.021653
705.00	0.021295
706.00	0.020938
707.00	0.020580
708.00	0.020222
709.00	0.019865
710.00	0.019507
711.00	0.019017
712.00	0.018486
713.00	0.017955
714.00	0.017424
715.00	0.016893
716.00	0.016361
717.00	0.015830
718.00	0.015299
719.00	0.014768
720.00	0.014237
721.00	0.013706
722.00	0.013174
723.00	0.012643
724.00	0.012115
725.00	0.011674
726.00	0.011233
727.00	0.010792
728.00	0.010351
729.00	0.0099098
730.00	0.0094688
731.00	0.0090278
732.00	0.0085868
733.00	0.0081459
734.00	0.0077049
735.00	0.0072639
736.00	0.0068229
737.00	0.0063819
738.00	0.0061114
739.00	0.0058835
740.00	0.0056556
741.00	0.0054277
742.00	0.0051998
743.00	0.0049719
744.00	0.0047440
745.00	0.0045161
746.00	0.0042882
747.00	0.0040603
748.00	0.0038324
749.00	0.0036045
750.00	0.0033766
751.00	
752.00	
753.00	
754.00	
755.00	
756.00	
757.00	
758.00	
759.00	
760.00	
761.00	
762.00	
763.00	
764.00	
765.00	
766.00	
767.00	
768.00	
769.00	
770.00	
771.00	
772.00	
773.00	
774.00	
775.00	
776.00	
777.00	
778.00	
779.00	
780.00	
781.00	
782.00	
783.00	
784.00	
785.00	
786.00	
787.00	
788.00	
789.00	
790.00	
791.00	
792.00	
793.00	
794.00	
795.00	
796.00	
797.00	
798.00	
799.00	
800.00	
801.00	
802.00	
803.00	
804.00	
805.00	
806.00	
807.00	
808.00	
809.00	
810.00	
811.00	
812.00	
813.00	
814.00	
815.00	
816.00	
817.00	
818.00	
819.00	
820.00	
821.00	
822.00	
823.00	
824.00	
825.00	
826.00	
827.00	
828.00	
829.00	
830.00	
831.00	
832.00	
833.00	
834.00	
835.00	
836.00	
837.00	
838.00	
839.00	
840.00	
841.00	
842.00	
843.00	
844.00	
845.00	
846.00	
847.00	
848.00	
849.00	
850.00	
