Wavelength (nm)	"24, Perkin 1, 1982_1291, 4"
200.00	
201.00	
202.00	
203.00	
204.00	
205.00	
206.00	
207.00	
208.00	
209.00	
210.00	
211.00	
212.00	
213.00	
214.00	
215.00	
216.00	
217.00	
218.00	
219.00	
220.00	
221.00	
222.00	
223.00	
224.00	
225.00	
226.00	
227.00	
228.00	
229.00	
230.00	
231.00	
232.00	
233.00	
234.00	
235.00	
236.00	
237.00	
238.00	
239.00	
240.00	
241.00	
242.00	
243.00	
244.00	
245.00	
246.00	
247.00	
248.00	
249.00	
250.00	0.23540
251.00	0.24014
252.00	0.24488
253.00	0.24948
254.00	0.25297
255.00	0.25646
256.00	0.25995
257.00	0.26345
258.00	0.26694
259.00	0.27043
260.00	0.27392
261.00	0.27741
262.00	0.28074
263.00	0.28405
264.00	0.28736
265.00	0.29067
266.00	0.29398
267.00	0.29729
268.00	0.30060
269.00	0.30391
270.00	0.30722
271.00	0.31034
272.00	0.31337
273.00	0.31640
274.00	0.31943
275.00	0.32246
276.00	0.32550
277.00	0.32853
278.00	0.33156
279.00	0.33459
280.00	0.33762
281.00	0.34065
282.00	0.34387
283.00	0.34744
284.00	0.35100
285.00	0.35457
286.00	0.35813
287.00	0.36170
288.00	0.36527
289.00	0.36883
290.00	0.37240
291.00	0.37592
292.00	0.37923
293.00	0.38253
294.00	0.38584
295.00	0.38915
296.00	0.39246
297.00	0.39577
298.00	0.39908
299.00	0.40239
300.00	0.40570
301.00	0.40805
302.00	0.41039
303.00	0.41274
304.00	0.41508
305.00	0.41743
306.00	0.41977
307.00	0.42212
308.00	0.42405
309.00	0.42525
310.00	0.42645
311.00	0.42765
312.00	0.42885
313.00	0.43005
314.00	0.43125
315.00	0.43244
316.00	0.43364
317.00	0.43484
318.00	0.43604
319.00	0.43913
320.00	0.44229
321.00	0.44545
322.00	0.44861
323.00	0.45178
324.00	0.45494
325.00	0.45810
326.00	0.46126
327.00	0.46449
328.00	0.46836
329.00	0.47224
330.00	0.47611
331.00	0.47998
332.00	0.48386
333.00	0.48773
334.00	0.49179
335.00	0.49943
336.00	0.50708
337.00	0.51472
338.00	0.52236
339.00	0.53000
340.00	0.53911
341.00	0.55286
342.00	0.56661
343.00	0.58132
344.00	0.60035
345.00	0.61939
346.00	0.63842
347.00	0.65712
348.00	0.67456
349.00	0.69200
350.00	0.70945
351.00	0.72689
352.00	0.74433
353.00	0.76293
354.00	0.79331
355.00	0.82368
356.00	0.85406
357.00	0.87601
358.00	0.89485
359.00	0.91370
360.00	0.93254
361.00	0.95007
362.00	0.95955
363.00	0.96903
364.00	0.97851
365.00	0.98511
366.00	0.99086
367.00	0.99523
368.00	0.99682
369.00	0.99841
370.00	1.0000
371.00	0.99868
372.00	0.99736
373.00	0.99604
374.00	0.99472
375.00	0.98614
376.00	0.97748
377.00	0.96883
378.00	0.94999
379.00	0.93038
380.00	0.91078
381.00	0.87471
382.00	0.83618
383.00	0.79944
384.00	0.77588
385.00	0.75232
386.00	0.72876
387.00	0.70520
388.00	0.68164
389.00	0.65703
390.00	0.62994
391.00	0.60286
392.00	0.57578
393.00	0.55134
394.00	0.53229
395.00	0.51324
396.00	0.49418
397.00	0.47513
398.00	0.45608
399.00	0.43702
400.00	0.41630
401.00	0.39542
402.00	0.37453
403.00	0.35365
404.00	0.33452
405.00	0.31648
406.00	0.29844
407.00	0.28039
408.00	0.26647
409.00	0.25277
410.00	0.23906
411.00	0.22536
412.00	0.21207
413.00	0.20521
414.00	0.19835
415.00	0.19149
416.00	0.18463
417.00	0.17776
418.00	0.17090
419.00	0.16404
420.00	0.15712
421.00	0.15021
422.00	0.14329
423.00	0.13637
424.00	0.12945
425.00	0.12254
426.00	0.11801
427.00	0.11508
428.00	0.11214
429.00	0.10921
430.00	0.10627
431.00	0.10334
432.00	0.10040
433.00	0.097469
434.00	0.094535
435.00	0.091601
436.00	0.089050
437.00	0.086868
438.00	0.084686
439.00	0.082504
440.00	0.080323
441.00	0.078141
442.00	0.075959
443.00	0.073777
444.00	0.071595
445.00	0.069924
446.00	0.068286
447.00	0.066647
448.00	0.065009
449.00	0.063371
450.00	0.061732
451.00	0.060094
452.00	0.058456
453.00	0.057198
454.00	0.056561
455.00	0.055924
456.00	0.055286
457.00	0.054649
458.00	0.054012
459.00	0.053375
460.00	0.052738
461.00	0.052101
462.00	0.051511
463.00	0.050933
464.00	0.050354
465.00	0.049775
466.00	0.049196
467.00	0.048618
468.00	0.048109
469.00	0.048313
470.00	0.048517
471.00	0.048720
472.00	0.048924
473.00	0.049128
474.00	0.049331
475.00	0.049535
476.00	0.049969
477.00	0.050698
478.00	0.051426
479.00	0.052154
480.00	0.052882
481.00	0.053610
482.00	0.054338
483.00	0.055066
484.00	0.055795
485.00	0.056541
486.00	0.057290
487.00	0.058040
488.00	0.058789
489.00	0.059538
490.00	0.060287
491.00	0.061036
492.00	0.061785
493.00	0.062534
494.00	0.063283
495.00	0.064212
496.00	0.065336
497.00	0.066460
498.00	0.067584
499.00	0.068707
500.00	0.069831
501.00	0.070955
502.00	0.072079
503.00	0.073202
504.00	0.074326
505.00	0.075503
506.00	0.077285
507.00	0.079067
508.00	0.080849
509.00	0.082632
510.00	0.084414
511.00	0.086196
512.00	0.087978
513.00	0.089761
514.00	0.091543
515.00	0.093250
516.00	0.094950
517.00	0.096649
518.00	0.098348
519.00	0.10005
520.00	0.10175
521.00	0.10345
522.00	0.10515
523.00	0.10684
524.00	0.10854
525.00	0.11024
526.00	0.11194
527.00	0.11363
528.00	0.11521
529.00	0.11679
530.00	0.11837
531.00	0.11995
532.00	0.12153
533.00	0.12311
534.00	0.12468
535.00	0.12626
536.00	0.12784
537.00	0.12942
538.00	0.13100
539.00	0.13258
540.00	0.13415
541.00	0.13573
542.00	0.13731
543.00	0.13891
544.00	0.14052
545.00	0.14212
546.00	0.14373
547.00	0.14533
548.00	0.14694
549.00	0.14854
550.00	0.15015
551.00	0.15175
552.00	0.15336
553.00	0.15497
554.00	0.15657
555.00	0.15818
556.00	0.15978
557.00	0.16161
558.00	0.16353
559.00	0.16546
560.00	0.16738
561.00	0.16931
562.00	0.17123
563.00	0.17316
564.00	0.17508
565.00	0.17700
566.00	0.17893
567.00	0.18085
568.00	0.18278
569.00	0.18470
570.00	0.18663
571.00	0.18855
572.00	0.19043
573.00	0.19229
574.00	0.19415
575.00	0.19601
576.00	0.19788
577.00	0.19974
578.00	0.20160
579.00	0.20346
580.00	0.20532
581.00	0.20718
582.00	0.20904
583.00	0.21090
584.00	0.21276
585.00	0.21463
586.00	0.21649
587.00	0.21835
588.00	0.21992
589.00	0.22141
590.00	0.22291
591.00	0.22440
592.00	0.22589
593.00	0.22739
594.00	0.22888
595.00	0.23038
596.00	0.23187
597.00	0.23337
598.00	0.23486
599.00	0.23636
600.00	0.23785
601.00	0.23935
602.00	0.24073
603.00	0.24208
604.00	0.24343
605.00	0.24478
606.00	0.24613
607.00	0.24748
608.00	0.24883
609.00	0.25018
610.00	0.25152
611.00	0.25287
612.00	0.25422
613.00	0.25557
614.00	0.25692
615.00	0.25827
616.00	0.25962
617.00	0.26094
618.00	0.26205
619.00	0.26317
620.00	0.26429
621.00	0.26541
622.00	0.26653
623.00	0.26764
624.00	0.26876
625.00	0.26988
626.00	0.27100
627.00	0.27212
628.00	0.27323
629.00	0.27435
630.00	0.27540
631.00	0.27641
632.00	0.27741
633.00	0.27841
634.00	0.27942
635.00	0.28042
636.00	0.28143
637.00	0.28243
638.00	0.28343
639.00	0.28444
640.00	0.28534
641.00	0.28614
642.00	0.28693
643.00	0.28773
644.00	0.28853
645.00	0.28911
646.00	0.28955
647.00	0.29000
648.00	0.29044
649.00	0.29089
650.00	0.29133
651.00	0.29100
652.00	0.29067
653.00	0.29034
654.00	0.29001
655.00	0.28968
656.00	0.28935
657.00	0.28902
658.00	0.28846
659.00	0.28761
660.00	0.28676
661.00	0.28590
662.00	0.28505
663.00	0.28420
664.00	0.28335
665.00	0.28250
666.00	0.28150
667.00	0.27991
668.00	0.27832
669.00	0.27673
670.00	0.27514
671.00	0.27355
672.00	0.27195
673.00	0.27036
674.00	0.26828
675.00	0.26611
676.00	0.26395
677.00	0.26178
678.00	0.25962
679.00	0.25745
680.00	0.25531
681.00	0.25317
682.00	0.25103
683.00	0.24889
684.00	0.24675
685.00	0.24461
686.00	0.24248
687.00	0.24028
688.00	0.23747
689.00	0.23467
690.00	0.23187
691.00	0.22906
692.00	0.22626
693.00	0.22346
694.00	0.22065
695.00	0.21785
696.00	0.21504
697.00	0.21232
698.00	0.20959
699.00	0.20687
700.00	0.20415
701.00	0.20142
702.00	0.19870
703.00	0.19598
704.00	0.19326
705.00	0.19058
706.00	0.18869
707.00	0.18680
708.00	0.18491
709.00	0.18302
710.00	0.18113
711.00	0.17925
712.00	0.17736
713.00	0.17547
714.00	0.17358
715.00	0.17140
716.00	0.16900
717.00	0.16660
718.00	0.16420
719.00	0.16179
720.00	0.15939
721.00	0.15699
722.00	0.15458
723.00	0.15218
724.00	0.14978
725.00	0.14738
726.00	0.14513
727.00	0.14292
728.00	0.14070
729.00	0.13849
730.00	0.13627
731.00	0.13405
732.00	0.13184
733.00	0.12981
734.00	0.12782
735.00	0.12583
736.00	0.12384
737.00	0.12185
738.00	0.11986
739.00	0.11787
740.00	0.11588
741.00	0.11389
742.00	0.11192
743.00	0.11048
744.00	0.10903
745.00	0.10759
746.00	0.10614
747.00	0.10469
748.00	0.10325
749.00	0.10180
750.00	0.10036
751.00	0.098913
752.00	0.097467
753.00	0.096022
754.00	0.094649
755.00	0.093304
756.00	0.091960
757.00	0.090615
758.00	0.089271
759.00	0.087926
760.00	0.086581
761.00	0.085237
762.00	0.083892
763.00	0.082548
764.00	0.081203
765.00	0.080031
766.00	0.078930
767.00	0.077829
768.00	0.076728
769.00	0.075627
770.00	0.074525
771.00	0.073424
772.00	0.072323
773.00	0.071222
774.00	0.070121
775.00	0.069020
776.00	0.067912
777.00	0.066794
778.00	0.065675
779.00	0.064557
780.00	0.063438
781.00	0.062320
782.00	0.061202
783.00	0.060083
784.00	0.058965
785.00	0.057847
786.00	0.056728
787.00	0.055610
788.00	0.054492
789.00	0.053877
790.00	0.053351
791.00	0.052825
792.00	0.052299
793.00	0.051773
794.00	0.051247
795.00	0.050721
796.00	0.050195
797.00	0.049669
798.00	0.049143
799.00	0.048617
800.00	0.048091
801.00	
802.00	
803.00	
804.00	
805.00	
806.00	
807.00	
808.00	
809.00	
810.00	
811.00	
812.00	
813.00	
814.00	
815.00	
816.00	
817.00	
818.00	
819.00	
820.00	
821.00	
822.00	
823.00	
824.00	
825.00	
826.00	
827.00	
828.00	
829.00	
830.00	
831.00	
832.00	
833.00	
834.00	
835.00	
836.00	
837.00	
838.00	
839.00	
840.00	
841.00	
842.00	
843.00	
844.00	
845.00	
846.00	
847.00	
848.00	
849.00	
850.00	
851.00	
852.00	
853.00	
854.00	
855.00	
856.00	
857.00	
858.00	
859.00	
860.00	
861.00	
862.00	
863.00	
864.00	
865.00	
866.00	
867.00	
868.00	
869.00	
870.00	
871.00	
872.00	
873.00	
874.00	
875.00	
876.00	
877.00	
878.00	
879.00	
880.00	
881.00	
882.00	
883.00	
884.00	
885.00	
886.00	
887.00	
888.00	
889.00	
890.00	
891.00	
892.00	
893.00	
894.00	
895.00	
896.00	
897.00	
898.00	
899.00	
900.00	
901.00	
902.00	
903.00	
904.00	
905.00	
906.00	
907.00	
908.00	
909.00	
910.00	
911.00	
912.00	
913.00	
914.00	
915.00	
916.00	
917.00	
918.00	
919.00	
920.00	
921.00	
922.00	
923.00	
924.00	
925.00	
926.00	
927.00	
928.00	
929.00	
930.00	
931.00	
932.00	
933.00	
934.00	
935.00	
936.00	
937.00	
938.00	
939.00	
940.00	
941.00	
942.00	
943.00	
944.00	
945.00	
946.00	
947.00	
948.00	
949.00	
950.00	
951.00	
952.00	
953.00	
954.00	
955.00	
956.00	
957.00	
958.00	
959.00	
960.00	
961.00	
962.00	
963.00	
964.00	
965.00	
966.00	
967.00	
968.00	
969.00	
970.00	
971.00	
972.00	
973.00	
974.00	
975.00	
976.00	
977.00	
978.00	
979.00	
980.00	
981.00	
982.00	
983.00	
984.00	
985.00	
986.00	
987.00	
988.00	
989.00	
990.00	
991.00	
992.00	
993.00	
994.00	
995.00	
996.00	
997.00	
998.00	
999.00	
1000.0	
1001.0	
1002.0	
1003.0	
1004.0	
1005.0	
1006.0	
1007.0	
1008.0	
1009.0	
1010.0	
1011.0	
1012.0	
1013.0	
1014.0	
1015.0	
1016.0	
1017.0	
1018.0	
1019.0	
1020.0	
1021.0	
1022.0	
1023.0	
1024.0	
1025.0	
1026.0	
1027.0	
1028.0	
1029.0	
1030.0	
1031.0	
1032.0	
1033.0	
1034.0	
1035.0	
1036.0	
1037.0	
1038.0	
1039.0	
1040.0	
1041.0	
1042.0	
1043.0	
1044.0	
1045.0	
1046.0	
1047.0	
1048.0	
1049.0	
1050.0	
1051.0	
1052.0	
1053.0	
1054.0	
1055.0	
1056.0	
1057.0	
1058.0	
1059.0	
1060.0	
1061.0	
1062.0	
1063.0	
1064.0	
1065.0	
1066.0	
1067.0	
1068.0	
1069.0	
1070.0	
1071.0	
1072.0	
1073.0	
1074.0	
1075.0	
1076.0	
1077.0	
1078.0	
1079.0	
1080.0	
1081.0	
1082.0	
1083.0	
1084.0	
1085.0	
1086.0	
1087.0	
1088.0	
1089.0	
1090.0	
1091.0	
1092.0	
1093.0	
1094.0	
1095.0	
1096.0	
1097.0	
1098.0	
1099.0	
1100.0	
1101.0	
1102.0	
1103.0	
1104.0	
1105.0	
1106.0	
1107.0	
1108.0	
1109.0	
1110.0	
1111.0	
1112.0	
1113.0	
1114.0	
1115.0	
1116.0	
1117.0	
1118.0	
1119.0	
1120.0	
1121.0	
1122.0	
1123.0	
1124.0	
1125.0	
1126.0	
1127.0	
1128.0	
1129.0	
1130.0	
1131.0	
1132.0	
1133.0	
1134.0	
1135.0	
1136.0	
1137.0	
1138.0	
1139.0	
1140.0	
1141.0	
1142.0	
1143.0	
1144.0	
1145.0	
1146.0	
1147.0	
1148.0	
1149.0	
1150.0	
1151.0	
1152.0	
1153.0	
1154.0	
1155.0	
1156.0	
1157.0	
1158.0	
1159.0	
1160.0	
1161.0	
1162.0	
1163.0	
1164.0	
1165.0	
1166.0	
1167.0	
1168.0	
1169.0	
1170.0	
1171.0	
1172.0	
1173.0	
1174.0	
1175.0	
1176.0	
1177.0	
1178.0	
1179.0	
1180.0	
1181.0	
1182.0	
1183.0	
1184.0	
1185.0	
1186.0	
1187.0	
1188.0	
1189.0	
1190.0	
1191.0	
1192.0	
1193.0	
1194.0	
1195.0	
1196.0	
1197.0	
1198.0	
1199.0	
1200.0	
