Wavelength (nm)	CHL037_Phe a, 90Ace (Clementson, 2019).abs
326.60	0.25671
327.40	0.25849
328.30	0.25327
329.10	0.25278
330.00	0.24868
330.80	0.23886
331.70	0.23428
332.50	0.22959
333.40	0.22930
334.20	0.22449
335.10	0.22153
335.90	0.22305
336.80	0.22440
337.70	0.22425
338.50	0.22619
339.40	0.22743
340.20	0.23053
341.10	0.23308
341.90	0.23501
342.80	0.24229
343.60	0.24668
344.50	0.24879
345.30	0.25884
346.20	0.26333
347.00	0.27271
347.90	0.27752
348.70	0.28664
349.60	0.29355
350.50	0.30189
351.30	0.31121
352.20	0.32159
353.00	0.32959
353.90	0.33652
354.70	0.34592
355.60	0.35418
356.40	0.36583
357.30	0.37745
358.10	0.38692
359.00	0.39872
359.80	0.41043
360.70	0.42401
361.50	0.43601
362.40	0.44870
363.30	0.46215
364.10	0.47496
365.00	0.48762
365.80	0.50013
366.70	0.51074
367.50	0.52271
368.40	0.53142
369.20	0.54111
370.10	0.55060
370.90	0.55903
371.80	0.56556
372.60	0.57328
373.50	0.57985
374.30	0.58634
375.20	0.59213
376.10	0.59784
376.90	0.60572
377.80	0.61180
378.60	0.61840
379.50	0.62661
380.30	0.63332
381.20	0.64379
382.00	0.65210
382.90	0.66505
383.70	0.67905
384.60	0.69511
385.40	0.70528
386.30	0.71750
387.10	0.73221
388.00	0.74855
388.90	0.76458
389.70	0.78051
390.60	0.79597
391.40	0.81179
392.30	0.82393
393.10	0.83841
394.00	0.84917
394.80	0.86080
395.70	0.86893
396.50	0.87760
397.40	0.88410
398.20	0.89121
399.10	0.89709
399.90	0.90431
400.80	0.91021
401.70	0.91750
402.50	0.92579
403.40	0.93582
404.20	0.94682
405.10	0.95914
405.90	0.97082
406.80	0.98208
407.60	0.99140
408.50	0.99805
409.30	1.0000
410.20	0.99966
411.00	0.99178
411.90	0.97984
412.70	0.96098
413.60	0.93731
414.50	0.90590
415.30	0.86729
416.20	0.82029
417.00	0.77755
417.90	0.74799
418.70	0.70703
419.60	0.65966
420.40	0.61276
421.30	0.56539
422.10	0.51752
423.00	0.47082
423.80	0.42685
424.70	0.38245
425.50	0.34190
426.40	0.30362
427.30	0.26883
428.10	0.23651
429.00	0.20765
429.80	0.18160
430.70	0.15822
431.50	0.13654
432.40	0.11995
433.20	0.10518
434.10	0.093345
434.90	0.082136
435.80	0.072564
436.60	0.064161
437.50	0.057891
438.30	0.051633
439.20	0.046710
440.10	0.042402
440.90	0.039737
441.80	0.036467
442.60	0.033994
443.50	0.031579
444.30	0.029727
445.20	0.028286
446.00	0.027338
446.90	0.026217
447.70	0.025171
448.60	0.024789
449.40	0.023972
450.30	0.023285
451.10	0.022743
452.00	0.022792
452.90	0.022202
453.70	0.022526
454.60	0.022276
455.40	0.023387
456.30	0.023659
457.10	0.023505
458.00	0.024354
458.80	0.025235
459.70	0.026645
460.50	0.026991
461.40	0.028322
462.20	0.029082
463.10	0.030731
463.90	0.031893
464.80	0.033510
465.70	0.033764
466.50	0.033968
467.40	0.034930
468.20	0.035967
469.10	0.036252
469.90	0.036194
470.80	0.036227
471.60	0.036442
472.50	0.036590
473.30	0.037030
474.20	0.036175
475.00	0.036100
475.90	0.036491
476.70	0.036033
477.60	0.035939
478.50	0.035068
479.30	0.034637
480.20	0.034319
481.00	0.033767
481.90	0.033502
482.70	0.034403
483.60	0.033874
484.40	0.035016
485.30	0.034880
486.10	0.036158
487.00	0.038521
487.80	0.040294
488.70	0.042871
489.50	0.046667
490.40	0.049681
491.30	0.054220
492.10	0.057845
493.00	0.063312
493.80	0.067652
494.70	0.072427
495.50	0.077316
496.40	0.081238
497.20	0.084858
498.10	0.088750
498.90	0.091593
499.80	0.093943
500.60	0.096512
501.50	0.098751
502.30	0.10087
503.20	0.10237
504.10	0.10417
504.90	0.10483
505.80	0.10439
506.60	0.10469
507.50	0.10193
508.30	0.099700
509.20	0.095199
510.00	0.090653
510.90	0.085908
511.70	0.078495
512.60	0.072117
513.40	0.068318
514.30	0.063700
515.10	0.060065
516.00	0.055659
516.90	0.052095
517.70	0.049341
518.60	0.047403
519.40	0.044759
520.30	0.043871
521.10	0.042678
522.00	0.041994
522.80	0.042079
523.70	0.043324
524.50	0.045249
525.40	0.047241
526.20	0.050277
527.10	0.054308
527.90	0.059019
528.80	0.064481
529.70	0.069870
530.50	0.075803
531.40	0.080908
532.20	0.086363
533.10	0.089914
533.90	0.093495
534.80	0.094174
535.60	0.093759
536.50	0.091371
537.30	0.087565
538.20	0.082609
539.00	0.076909
539.90	0.069992
540.70	0.064322
541.60	0.057472
542.50	0.051399
543.30	0.044441
544.20	0.039881
545.00	0.036199
545.90	0.034820
546.70	0.031925
547.60	0.030071
548.40	0.028907
549.30	0.027785
550.10	0.028178
551.00	0.027487
551.80	0.028293
552.70	0.027959
553.50	0.028398
554.40	0.028006
555.30	0.028682
556.10	0.028662
557.00	0.029007
557.80	0.028887
558.70	0.028863
559.50	0.028551
560.40	0.029073
561.20	0.027854
562.10	0.027537
562.90	0.026695
563.80	0.026089
564.60	0.025679
565.50	0.024859
566.30	0.023343
567.20	0.022875
568.10	0.022025
568.90	0.021042
569.80	0.020612
570.60	0.020049
571.50	0.019152
572.30	0.018882
573.20	0.018353
574.00	0.018202
574.90	0.017619
575.70	0.016929
576.60	0.016960
577.40	0.017461
578.30	0.016256
579.10	0.017276
580.00	0.016844
580.90	0.016645
581.70	0.017346
582.60	0.017619
583.40	0.017544
584.30	0.018214
585.10	0.019051
586.00	0.019812
586.80	0.020998
587.70	0.021293
588.50	0.022593
589.40	0.024095
590.20	0.026011
591.10	0.028115
591.90	0.030680
592.80	0.032419
593.70	0.035454
594.50	0.038424
595.40	0.041319
596.20	0.044483
597.10	0.048290
597.90	0.052412
598.80	0.055835
599.60	0.060183
600.50	0.063478
601.30	0.066744
602.20	0.070172
603.00	0.072391
603.90	0.075389
604.70	0.076989
605.60	0.078884
606.50	0.079902
607.30	0.080221
608.20	0.079788
609.00	0.079505
609.90	0.078994
610.70	0.077963
611.60	0.075581
612.40	0.074389
613.30	0.071734
614.10	0.069578
615.00	0.067595
615.80	0.064687
616.70	0.062020
617.50	0.059250
618.40	0.057062
619.30	0.054462
620.10	0.051910
621.00	0.049625
621.80	0.047910
622.70	0.045931
623.50	0.044567
624.40	0.043564
625.20	0.042462
626.10	0.041950
626.90	0.040466
627.80	0.040774
628.60	0.039995
629.50	0.040494
630.30	0.040438
631.20	0.040897
632.10	0.040681
632.90	0.042049
633.80	0.042831
634.60	0.043060
635.50	0.044006
636.30	0.045686
637.20	0.045803
638.00	0.048350
638.90	0.048955
639.70	0.051861
640.60	0.054246
641.40	0.056565
642.30	0.058529
643.10	0.062499
644.00	0.066700
644.90	0.072677
645.70	0.078171
646.60	0.085453
647.40	0.093160
648.30	0.10254
649.10	0.11261
650.00	0.12528
650.80	0.13801
651.70	0.15258
652.50	0.17007
653.40	0.18828
654.20	0.20779
655.10	0.23013
655.90	0.25274
656.80	0.27697
657.70	0.30194
658.50	0.32535
659.40	0.34949
660.20	0.37311
661.10	0.39337
661.90	0.41298
662.80	0.42797
663.60	0.44092
664.50	0.44811
665.30	0.45079
666.20	0.44723
667.00	0.44141
667.90	0.42809
668.70	0.41246
669.60	0.39232
670.50	0.36884
671.30	0.33806
672.20	0.30635
673.00	0.28177
673.90	0.25984
674.70	0.23413
675.60	0.20774
676.40	0.18206
677.30	0.15976
678.10	0.13697
679.00	0.11839
679.80	0.10111
680.70	0.086610
681.50	0.073574
682.40	0.060958
683.30	0.052518
684.10	0.043657
685.00	0.036624
685.80	0.031357
686.70	0.026284
687.50	0.022367
688.40	0.019112
689.20	0.017253
690.10	0.014140
690.90	0.012266
691.80	0.010878
692.60	0.0097520
693.50	0.0084391
694.30	0.0069224
695.20	0.0068140
696.10	0.0064335
696.90	0.0056954
697.80	0.0046501
698.60	0.0046610
699.50	0.0031957
700.30	0.0025858
701.20	0.0017436
702.00	0.0022777
702.90	0.0025066
703.70	0.0017368
704.60	0.0018575
705.40	0.0014137
706.30	0.0017115
707.10	0.0013705
708.00	0.0012587
708.90	0.0014539
709.70	0.0017461
710.60	0.0010649
711.40	0.0012155
712.30	0.0012997
713.10	0.0014088
714.00	0.00041510
714.80	0.0012683
715.70	0.0013085
716.50	0.0011389
717.40	0.0011009
718.20	0.0010720
719.10	0.00054874
719.90	0.00095431
