Wavelength (nm)	H06 abs e
220.00	11207
220.25	10650
220.50	10086
220.75	9573.8
221.00	9120.8
221.25	8690.6
221.50	8275.9
221.75	7963.5
222.00	7624.3
222.25	7379.0
222.50	7168.8
222.75	6930.4
223.00	6730.2
223.25	6604.5
223.50	6457.5
223.75	6398.9
224.00	6315.7
224.25	6299.5
224.50	6257.8
224.75	6227.6
225.00	6224.0
225.25	6219.9
225.50	6247.0
225.75	6273.7
226.00	6322.3
226.25	6360.9
226.50	6480.6
226.75	6527.5
227.00	6603.1
227.25	6663.3
227.50	6761.4
227.75	6820.7
228.00	6981.7
228.25	7031.4
228.50	7155.3
228.75	7259.4
229.00	7423.5
229.25	7446.6
229.50	7574.6
229.75	7670.8
230.00	7791.3
230.25	7946.8
230.50	8047.3
230.75	8169.3
231.00	8318.7
231.25	8428.4
231.50	8548.7
231.75	8615.8
232.00	8773.1
232.25	8930.2
232.50	9042.2
232.75	9197.9
233.00	9276.2
233.25	9390.9
233.50	9555.3
233.75	9692.9
234.00	9849.2
234.25	10006
234.50	10105
234.75	10310
235.00	10484
235.25	10606
235.50	10790
235.75	11020
236.00	11196
236.25	11348
236.50	11477
236.75	11573
237.00	11765
237.25	11910
237.50	12002
237.75	12130
238.00	12222
238.25	12377
238.50	12446
238.75	12568
239.00	12650
239.25	12758
239.50	12846
239.75	12912
240.00	12988
240.25	13012
240.50	13052
240.75	13077
241.00	13096
241.25	13135
241.50	13176
241.75	13200
242.00	13223
242.25	13169
242.50	13202
242.75	13179
243.00	13186
243.25	13133
243.50	13139
243.75	13144
244.00	13091
244.25	13062
244.50	13017
244.75	13075
245.00	12993
245.25	13041
245.50	12971
245.75	12893
246.00	12874
246.25	12889
246.50	12835
246.75	12819
247.00	12790
247.25	12798
247.50	12700
247.75	12682
248.00	12691
248.25	12646
248.50	12612
248.75	12581
249.00	12528
249.25	12483
249.50	12461
249.75	12402
250.00	12332
250.25	12260
250.50	12194
250.75	12170
251.00	12097
251.25	11990
251.50	11928
251.75	11815
252.00	11714
252.25	11632
252.50	11576
252.75	11404
253.00	11332
253.25	11248
253.50	11153
253.75	11013
254.00	10930
254.25	10781
254.50	10651
254.75	10559
255.00	10497
255.25	10387
255.50	10209
255.75	10065
256.00	9900.7
256.25	9781.2
256.50	9578.0
256.75	9426.8
257.00	9281.8
257.25	9073.0
257.50	8869.1
257.75	8671.1
258.00	8508.2
258.25	8287.9
258.50	8099.5
258.75	7890.0
259.00	7675.2
259.25	7505.3
259.50	7246.7
259.75	7056.6
260.00	6807.7
260.25	6589.3
260.50	6399.2
260.75	6148.9
261.00	5920.4
261.25	5698.1
261.50	5463.3
261.75	5237.1
262.00	5011.8
262.25	4792.6
262.50	4600.5
262.75	4371.2
263.00	4159.7
263.25	3958.8
263.50	3772.4
263.75	3621.1
264.00	3416.3
264.25	3260.1
264.50	3104.5
264.75	2955.1
265.00	2835.4
265.25	2689.5
265.50	2561.5
265.75	2460.3
266.00	2335.6
266.25	2226.2
266.50	2117.4
266.75	2038.9
267.00	1976.9
267.25	1902.3
267.50	1814.3
267.75	1743.3
268.00	1677.4
268.25	1615.7
268.50	1562.5
268.75	1541.2
269.00	1468.6
269.25	1444.9
269.50	1399.5
269.75	1356.4
270.00	1319.9
270.25	1279.2
270.50	1267.3
270.75	1243.4
271.00	1213.5
271.25	1203.4
271.50	1155.4
271.75	1123.8
272.00	1147.7
272.25	1113.1
272.50	1085.8
272.75	1093.6
273.00	1095.5
273.25	1084.6
273.50	1087.3
273.75	1072.0
274.00	1088.8
274.25	1071.9
274.50	1087.7
274.75	1083.3
275.00	1073.9
275.25	1072.7
275.50	1096.1
275.75	1100.1
276.00	1109.0
276.25	1130.1
276.50	1116.1
276.75	1152.7
277.00	1138.5
277.25	1157.0
277.50	1132.3
277.75	1132.6
278.00	1146.9
278.25	1139.2
278.50	1134.5
278.75	1128.2
279.00	1118.4
279.25	1162.4
279.50	1120.2
279.75	1140.9
280.00	1122.8
280.25	1102.8
280.50	1044.5
280.75	1062.7
281.00	1043.4
281.25	1034.7
281.50	1009.0
281.75	1015.3
282.00	993.15
282.25	978.18
282.50	955.79
282.75	925.41
283.00	902.16
283.25	911.86
283.50	883.91
283.75	905.02
284.00	897.46
284.25	864.66
284.50	872.07
284.75	855.39
285.00	873.50
285.25	854.82
285.50	852.11
285.75	860.81
286.00	876.64
286.25	870.79
286.50	893.04
286.75	907.73
287.00	907.44
287.25	884.34
287.50	921.56
287.75	935.11
288.00	927.98
288.25	977.18
288.50	992.30
288.75	990.73
289.00	998.00
289.25	1055.9
289.50	1037.8
289.75	1070.7
290.00	1102.8
290.25	1115.7
290.50	1177.8
290.75	1176.7
291.00	1167.6
291.25	1205.8
291.50	1224.2
291.75	1213.5
292.00	1266.1
292.25	1277.5
292.50	1301.3
292.75	1363.8
293.00	1366.8
293.25	1409.2
293.50	1406.3
293.75	1452.4
294.00	1472.2
294.25	1469.0
294.50	1506.1
294.75	1547.9
295.00	1532.5
295.25	1550.5
295.50	1577.0
295.75	1619.1
296.00	1643.6
296.25	1688.4
296.50	1693.5
296.75	1735.0
297.00	1777.5
297.25	1830.3
297.50	1863.8
297.75	1851.8
298.00	1920.0
298.25	1955.6
298.50	1988.6
298.75	2017.5
299.00	2044.8
299.25	2111.5
299.50	2105.1
299.75	2135.6
300.00	2187.5
300.25	2241.6
300.50	2272.1
300.75	2278.1
301.00	2301.5
301.25	2305.9
301.50	2346.0
301.75	2382.5
302.00	2392.7
302.25	2422.7
302.50	2439.7
302.75	2448.4
303.00	2486.0
303.25	2478.2
303.50	2452.9
303.75	2529.1
304.00	2502.8
304.25	2524.2
304.50	2502.8
304.75	2547.6
305.00	2544.8
305.25	2566.4
305.50	2548.2
305.75	2556.9
306.00	2564.3
306.25	2568.4
306.50	2615.4
306.75	2620.9
307.00	2617.8
307.25	2609.1
307.50	2619.2
307.75	2669.6
308.00	2654.2
308.25	2678.5
308.50	2706.8
308.75	2723.5
309.00	2736.3
309.25	2738.4
309.50	2776.9
309.75	2803.2
310.00	2776.5
310.25	2830.1
310.50	2939.5
310.75	2856.8
311.00	3002.7
311.25	2982.3
311.50	3039.2
311.75	3024.5
312.00	2967.9
312.25	2971.2
312.50	3086.6
312.75	3133.6
313.00	3181.3
313.25	3227.9
313.50	3193.9
313.75	3252.1
314.00	3205.8
314.25	3244.4
314.50	3221.8
314.75	3178.0
315.00	3226.5
315.25	3300.2
315.50	3335.6
315.75	3309.6
316.00	3229.0
316.25	3177.8
316.50	3111.2
316.75	3162.4
317.00	3223.5
317.25	3157.3
317.50	3173.5
317.75	3145.9
318.00	3097.4
318.25	3150.4
318.50	3064.7
318.75	3058.7
319.00	3106.4
319.25	3217.8
319.50	3095.0
319.75	3070.7
320.00	3183.0
320.25	3054.3
320.50	3200.2
320.75	3164.7
321.00	3105.5
321.25	3186.7
321.50	3231.9
321.75	3213.1
322.00	3265.8
322.25	3283.2
322.50	3236.2
322.75	3263.3
323.00	3415.6
323.25	3476.7
323.50	3513.8
323.75	3539.3
324.00	3605.8
324.25	3635.0
324.50	3585.8
324.75	3672.1
325.00	3810.7
325.25	3854.7
325.50	3849.0
325.75	3928.5
326.00	3888.3
326.25	3934.2
326.50	4075.3
326.75	4265.0
327.00	4243.7
327.25	4300.6
327.50	4442.8
327.75	4397.3
328.00	4544.2
328.25	4562.7
328.50	4646.4
328.75	4759.7
329.00	4764.4
329.25	4932.1
329.50	4958.6
329.75	5006.1
330.00	5152.9
330.25	5220.9
330.50	5360.2
330.75	5477.4
331.00	5515.7
331.25	5597.8
331.50	5603.2
331.75	5775.4
332.00	5895.7
332.25	6001.8
332.50	6097.4
332.75	6148.2
333.00	6267.8
333.25	6301.7
333.50	6398.6
333.75	6602.1
334.00	6648.2
334.25	6758.1
334.50	6828.1
334.75	6865.1
335.00	6921.8
335.25	6992.0
335.50	7157.8
335.75	7189.4
336.00	7314.9
336.25	7508.5
336.50	7495.0
336.75	7648.4
337.00	7906.8
337.25	7972.6
337.50	8021.1
337.75	8192.4
338.00	8283.8
338.25	8337.5
338.50	8472.6
338.75	8667.8
339.00	8800.6
339.25	8957.8
339.50	9101.9
339.75	9111.5
340.00	9297.9
340.25	9442.9
340.50	9532.9
340.75	9718.2
341.00	9880.2
341.25	9897.9
341.50	10147
341.75	10204
342.00	10313
342.25	10481
342.50	10617
342.75	10822
343.00	10949
343.25	11069
343.50	11190
343.75	11324
344.00	11419
344.25	11515
344.50	11604
344.75	11680
345.00	11970
345.25	12075
345.50	12114
345.75	12332
346.00	12515
346.25	12545
346.50	12780
346.75	12876
347.00	13019
347.25	13223
347.50	13400
347.75	13426
348.00	13575
348.25	13819
348.50	13825
348.75	14055
349.00	14326
349.25	14320
349.50	14487
349.75	14604
350.00	14784
350.25	14890
350.50	14908
350.75	15163
351.00	15303
351.25	15443
351.50	15641
351.75	15746
352.00	15945
352.25	16001
352.50	16147
352.75	16346
353.00	16523
353.25	16610
353.50	16621
353.75	16798
354.00	17007
354.25	17140
354.50	17252
354.75	17414
355.00	17531
355.25	17670
355.50	17868
355.75	17984
356.00	18184
356.25	18346
356.50	18562
356.75	18699
357.00	18739
357.25	18950
357.50	18959
357.75	19104
358.00	19283
358.25	19260
358.50	19441
358.75	19487
359.00	19630
359.25	19862
359.50	19860
359.75	20109
360.00	20077
360.25	20149
360.50	20364
360.75	20552
361.00	20600
361.25	20595
361.50	20776
361.75	20857
362.00	21004
362.25	21104
362.50	21154
362.75	21206
363.00	21325
363.25	21498
363.50	21566
363.75	21553
364.00	21505
364.25	21612
364.50	21901
364.75	21712
365.00	21961
365.25	22158
365.50	22175
365.75	22140
366.00	22154
366.25	22416
366.50	22391
366.75	22304
367.00	22557
367.25	22496
367.50	22532
367.75	22719
368.00	22656
368.25	22780
368.50	22755
368.75	22858
369.00	22765
369.25	22818
369.50	23011
369.75	22905
370.00	23062
370.25	23149
370.50	23024
370.75	23000
371.00	23168
371.25	23139
371.50	23249
371.75	23195
372.00	23214
372.25	23358
372.50	23092
372.75	23283
373.00	23197
373.25	23500
373.50	23220
373.75	23269
374.00	23346
374.25	23335
374.50	23245
374.75	23315
375.00	23494
375.25	23343
375.50	23332
375.75	23305
376.00	23126
376.25	23330
376.50	23365
376.75	23302
377.00	23227
377.25	23191
377.50	23175
377.75	23193
378.00	23062
378.25	23079
378.50	23057
378.75	23013
379.00	22934
379.25	22813
379.50	22864
379.75	22744
380.00	22685
380.25	22587
380.50	22500
380.75	22430
381.00	22372
381.25	22213
381.50	22193
381.75	22105
382.00	21972
382.25	21798
382.50	21591
382.75	21636
383.00	21521
383.25	21447
383.50	21305
383.75	21232
384.00	21013
384.25	20833
384.50	20583
384.75	20533
385.00	20439
385.25	20198
385.50	20153
385.75	19863
386.00	19628
386.25	19635
386.50	19386
386.75	19214
387.00	19089
387.25	18848
387.50	18680
387.75	18399
388.00	18240
388.25	18048
388.50	17771
388.75	17610
389.00	17387
389.25	17171
389.50	16959
389.75	16712
390.00	16602
390.25	16219
390.50	15960
390.75	15816
391.00	15543
391.25	15367
391.50	15034
391.75	14808
392.00	14563
392.25	14379
392.50	14128
392.75	13973
393.00	13660
393.25	13476
393.50	13151
393.75	12963
394.00	12743
394.25	12532
394.50	12305
394.75	12029
395.00	11678
395.25	11477
395.50	11201
395.75	10947
396.00	10666
396.25	10396
396.50	10179
396.75	9945.8
397.00	9762.2
397.25	9537.3
397.50	9292.3
397.75	9117.6
398.00	8887.9
398.25	8713.7
398.50	8546.0
398.75	8359.4
399.00	8156.3
399.25	7951.9
399.50	7730.3
399.75	7589.3
400.00	7401.4
400.25	7248.8
400.50	7050.3
400.75	6875.6
401.00	6702.5
401.25	6532.4
401.50	6348.4
401.75	6202.5
402.00	6007.7
402.25	5891.2
402.50	5753.0
402.75	5554.3
403.00	5461.2
403.25	5281.5
403.50	5137.2
403.75	4971.0
404.00	4839.0
404.25	4732.7
404.50	4571.9
404.75	4457.5
405.00	4317.9
405.25	4189.8
405.50	4110.7
405.75	3975.5
406.00	3848.7
406.25	3781.1
406.50	3596.7
406.75	3519.2
407.00	3397.6
407.25	3300.8
407.50	3185.7
407.75	3097.3
408.00	2980.3
408.25	2897.9
408.50	2784.9
408.75	2710.3
409.00	2642.3
409.25	2530.5
409.50	2469.2
409.75	2329.3
410.00	2302.3
410.25	2218.0
410.50	2118.6
410.75	2075.7
411.00	1993.4
411.25	1978.3
411.50	1876.2
411.75	1774.8
412.00	1689.5
412.25	1680.0
412.50	1602.2
412.75	1532.5
413.00	1493.4
413.25	1437.2
413.50	1366.5
413.75	1327.9
414.00	1273.2
414.25	1232.3
414.50	1178.7
414.75	1156.4
415.00	1121.4
415.25	1071.2
415.50	1039.8
415.75	1007.1
416.00	965.34
416.25	942.95
416.50	876.35
416.75	854.53
417.00	826.01
417.25	754.99
417.50	784.65
417.75	733.17
418.00	682.68
418.25	716.91
418.50	606.24
418.75	579.29
419.00	571.45
419.25	556.33
419.50	513.97
419.75	496.86
420.00	459.07
420.25	469.48
420.50	423.84
420.75	410.44
421.00	397.60
421.25	380.20
421.50	322.45
421.75	334.71
422.00	346.26
422.25	290.79
422.50	286.51
422.75	260.41
423.00	255.28
423.25	283.94
423.50	243.72
423.75	228.75
424.00	209.78
424.25	220.34
424.50	216.20
424.75	196.80
425.00	188.68
425.25	198.52
425.50	156.59
425.75	122.22
426.00	139.33
426.25	142.33
426.50	132.77
426.75	123.22
427.00	118.08
427.25	134.06
427.50	86.566
427.75	129.78
428.00	104.11
428.25	94.267
428.50	67.883
428.75	98.402
429.00	87.992
429.25	82.430
429.50	82.430
429.75	88.847
430.00	57.901
430.25	87.421
430.50	55.191
430.75	45.065
431.00	67.456
431.25	29.093
431.50	33.942
431.75	61.181
432.00	67.741
432.25	34.512
432.50	71.591
432.75	63.605
433.00	41.358
433.25	69.452
433.50	17.827
433.75	20.964
434.00	42.356
434.25	37.650
434.50	34.797
434.75	35.796
435.00	9.4124
435.25	53.907
435.50	46.064
435.75	30.947
436.00	12.407
436.25	25.242
436.50	20.821
436.75	16.115
437.00	-3.1375
437.25	46.777
437.50	15.687
437.75	33.086
438.00	32.943
438.25	19.110
438.50	22.818
438.75	-14.689
439.00	15.830
439.25	12.835
439.50	19.966
439.75	37.650
440.00	35.653
440.25	11.979
440.50	9.1272
440.75	38.933
441.00	31.089
441.25	-10.553
441.50	20.108
441.75	-3.5653
442.00	21.249
442.25	-18.397
442.50	37.650
442.75	12.692
443.00	27.809
443.25	6.9880
443.50	1.2835
443.75	21.392
444.00	71.163
444.25	20.536
444.50	6.5602
444.75	18.540
445.00	1.5687
445.25	-10.553
445.50	14.832
445.75	-16.258
446.00	-13.976
446.25	16.258
446.50	24.387
446.75	43.211
447.00	49.629
447.25	13.976
447.50	23.674
447.75	35.510
448.00	16.258
448.25	5.1340
448.50	44.210
448.75	25.385
449.00	3.4227
449.25	15.687
449.50	31.375
449.75	4.7062
450.00	23.103
450.25	59.897
450.50	17.399
450.75	41.785
451.00	2.5670
451.25	26.668
451.50	15.973
451.75	5.9897
452.00	42.071
452.25	54.335
452.50	19.966
452.75	34.655
453.00	9.2698
453.25	3.2801
453.50	18.397
453.75	11.979
454.00	7.9863
454.25	33.656
454.50	43.782
454.75	1.8540
455.00	23.531
455.25	26.526
455.50	40.502
455.75	31.660
456.00	69.880
456.25	24.101
456.50	15.260
456.75	44.495
457.00	39.361
457.25	43.211
457.50	29.378
457.75	19.823
458.00	16.258
458.25	9.5550
458.50	39.361
458.75	16.686
459.00	41.500
459.25	33.799
459.50	54.906
459.75	54.478
460.00	19.253
460.25	79.007
460.50	27.667
460.75	48.773
461.00	25.242
461.25	37.792
461.50	59.041
461.75	57.330
462.00	30.804
462.25	40.930
462.50	52.196
462.75	14.832
463.00	55.904
463.25	30.519
463.50	48.346
463.75	49.201
464.00	54.478
464.25	34.940
464.50	21.962
464.75	63.462
465.00	53.907
465.25	61.323
465.50	50.770
465.75	57.045
466.00	55.761
466.25	65.744
466.50	60.468
466.75	44.352
467.00	58.899
467.25	48.488
467.50	45.636
467.75	35.796
468.00	17.969
468.25	84.141
468.50	41.215
468.75	45.779
469.00	35.368
469.25	48.631
469.50	67.598
469.75	51.768
470.00	61.466
470.25	63.605
470.50	44.067
470.75	56.047
471.00	59.469
471.25	76.440
471.50	42.356
471.75	68.026
472.00	48.346
472.25	39.789
472.50	61.181
472.75	40.217
473.00	104.11
473.25	62.179
473.50	43.925
473.75	73.731
474.00	52.767
474.25	61.466
474.50	83.000
474.75	77.866
475.00	71.591
475.25	46.919
475.50	100.26
475.75	53.907
476.00	57.330
476.25	96.263
476.50	69.880
476.75	71.591
477.00	59.612
477.25	58.471
477.50	50.199
477.75	82.287
478.00	68.454
478.25	82.430
478.50	52.339
478.75	96.406
479.00	49.201
479.25	95.835
479.50	78.865
479.75	59.755
480.00	81.717
480.25	49.344
480.50	73.017
480.75	58.899
481.00	64.746
481.25	99.543
481.50	50.057
481.75	64.175
482.00	66.315
482.25	70.593
482.50	57.473
482.75	64.889
483.00	43.069
483.25	75.299
483.50	69.167
483.75	67.313
484.00	87.136
484.25	81.004
484.50	94.267
484.75	68.739
485.00	73.445
485.25	90.987
485.50	54.335
485.75	55.476
486.00	92.127
486.25	79.863
486.50	71.449
486.75	69.737
487.00	93.126
487.25	42.356
487.50	62.179
487.75	79.863
488.00	92.841
488.25	64.033
488.50	92.983
488.75	89.418
489.00	45.636
489.25	90.131
489.50	58.899
489.75	63.177
490.00	50.913
490.25	76.868
490.50	60.040
490.75	47.062
491.00	54.193
491.25	67.598
491.50	88.562
491.75	94.695
492.00	66.315
492.25	97.689
492.50	27.096
492.75	62.464
493.00	61.751
493.25	73.303
493.50	72.447
493.75	69.167
494.00	73.160
494.25	87.849
494.50	75.299
494.75	87.849
495.00	76.298
495.25	72.875
495.50	67.313
495.75	99.115
496.00	63.605
496.25	88.990
496.50	101.97
496.75	110.81
497.00	80.576
497.25	96.834
497.50	95.265
497.75	46.349
498.00	56.617
498.25	79.863
498.50	76.012
498.75	52.053
499.00	82.858
499.25	60.040
499.50	94.837
499.75	94.837
500.00	78.865
